#
#   version : 20090611
#    num_fr : 39
#      time : 20140720 04:05:39.414 UTC
#      unix : 1405829139.414596
#       ntp : LOCK -544 220888 267
#       seq : 102369179
#       mul : 0 [A]
#      site : 01
#    latlon : 45.5749 -94.3965 370.0
#      text : Collegeville
#     label : 
#     plate : metal_20100816_20100506-404-gd3
#      geom : 640 480
#    reject : 0
#
#  fr    time   sum     seq       cx       cy      th      phi    lsp    mag  flag
   29  -0.801  1761 102369155  440.960  223.063  35.406  132.693  -6.09   0.73  0000
   30  -0.767  1436 102369156  441.485  221.692  35.623  132.171  -5.62   1.20  0000
   31  -0.734  1968 102369157  443.862  221.652  36.268  132.371  -5.97   0.85  0000
   32  -0.701  2178 102369158  444.913  220.667  36.607  132.067  -6.66   0.16  0000
   33  -0.667  2193 102369159  446.280  219.214  37.061  131.611  -6.94  -0.12  0000
   34  -0.634  2158 102369160  446.748  218.885  37.207  131.524  -6.82  -0.00  0000
   35  -0.601  2448 102369161  447.998  217.712  37.615  131.181  -7.15  -0.33  0000
   36  -0.567  2632 102369162  450.741  217.569  38.365  131.381  -7.23  -0.41  0000
   37  -0.534  2610 102369163  451.391  216.637  38.598  131.085  -7.35  -0.53  0000
   38  -0.500  2921 102369164  451.712  215.608  38.749  130.724  -7.33  -0.51  0000
   39  -0.467  3073 102369165  454.732  215.216  39.591  130.860  -7.61  -0.79  0000
   40  -0.434  3140 102369166  455.833  214.207  39.953  130.589  -7.73  -0.91  0000
   41  -0.400  3659 102369167  456.653  213.251  40.237  130.316  -8.14  -1.32  0000
   42  -0.367  4168 102369168  458.554  212.954  40.771  130.387  -8.47  -1.65  0000
   43  -0.334  4339 102369169  460.372  211.996  41.327  130.213  -8.37  -1.55  0000
   44  -0.300  3491 102369170  460.864  211.549  41.490  130.100  -8.18  -1.36  0000
   45  -0.267  4994 102369171  462.145  210.511  41.907  129.855  -8.57  -1.75  0000
   46  -0.234  3962 102369172  464.202  209.958  42.503  129.854  -8.30  -1.48  0000
   47  -0.200  4103 102369173  464.920  209.241  42.747  129.674  -8.35  -1.53  0000
   48  -0.167  4303 102369174  466.174  208.345  43.150  129.485  -8.50  -1.68  0000
   49  -0.133  4544 102369175  466.758  207.924  43.338  129.397  -8.57  -1.75  0000
   50  -0.100  4480 102369176  469.313  206.849  44.108  129.276  -8.41  -1.59  0000
   51  -0.067  4147 102369177  470.201  206.326  44.387  129.185  -8.56  -1.74  0000
   52  -0.033  4284 102369178  471.045  205.458  44.679  128.978  -8.37  -1.55  0000
   53   0.000  5091 102369179  472.405  204.829  45.094  128.900  -8.57  -1.75  0000
   54   0.033  4079 102369180  474.431  204.013  45.706  128.825  -8.45  -1.63  0000
   55   0.067  3990 102369181  474.829  203.250  45.870  128.618  -8.32  -1.50  0000
   56   0.100  4648 102369182  476.773  202.559  46.452  128.579  -8.47  -1.65  0000
   57   0.133  4623 102369183  477.310  201.863  46.651  128.410  -8.47  -1.65  0000
   58   0.167  3803 102369184  479.220  201.596  47.192  128.503  -8.12  -1.30  0000
   59   0.200  3793 102369185  480.749  200.225  47.714  128.221  -8.13  -1.31  0000
   60   0.234  3105 102369186  481.445  199.881  47.930  128.180  -7.79  -0.97  0000
   61   0.267  3309 102369187  482.004  198.986  48.152  127.959  -7.49  -0.67  0000
   62   0.300  2607 102369188  484.175  198.273  48.801  127.944  -7.06  -0.24  0000
   63   0.334  2069 102369189  484.273  198.115  48.841  127.906  -6.53   0.29  0000
   64   0.367  2305 102369190  487.515  197.379  49.787  127.983  -6.26   0.56  0000
   67   0.467  1882 102369193  489.515  195.550  50.481  127.629  -6.22   0.60  0000
   68   0.501  2050 102369194  491.191  194.291  51.043  127.418  -5.95   0.87  0000
   69   0.534  1346 102369195  491.864  193.643  51.280  127.294  -5.05   1.77  0000
