#
#   version : 20090611
#    num_fr : 40
#      time : 20130323 07:41:29.226 UTC
#      unix : 1364024489.226828
#       ntp : LOCK 128 484854 235
#       seq : 145951069
#       mul : 0 [A]
#      site : 01
#    latlon : 45.5749 -94.3965 370.0
#      text : Collegeville
#     label : 
#     plate : metal_20100816_20100506-404-gd3
#      geom : 640 480
#    reject : 0
#
#  fr    time   sum     seq       cx       cy      th      phi    lsp    mag  flag
   29  -0.734  3409 145951047  404.341  344.197  34.995 -170.934  -6.77   0.05  0000
   30  -0.701  2907 145951048  407.758  346.821  36.164 -171.167  -6.72   0.10  0000
   32  -0.634  3903 145951050  411.569  348.217  37.183 -171.856  -6.78   0.04  0000
   33  -0.601  3436 145951051  414.227  350.163  38.081 -172.033  -7.20  -0.38  0000
   34  -0.567  3701 145951052  416.787  351.350  38.819 -172.390  -7.24  -0.42  0000
   35  -0.534  4350 145951053  419.321  352.156  39.484 -172.835  -7.69  -0.87  0000
   36  -0.501  4528 145951054  421.411  354.164  40.284 -172.816  -7.68  -0.86  0000
   37  -0.467  2633 145951055  424.771  355.228  41.172 -173.373  -7.62  -0.80  0000
   38  -0.434  3257 145951056  426.396  356.959  41.827 -173.305  -7.57  -0.75  0000
   39  -0.400  4889 145951057  429.003  358.045  42.569 -173.646  -7.75  -0.93  0000
   40  -0.367  2920 145951058  431.141  359.225  43.233 -173.841  -7.63  -0.81  0000
   41  -0.334  4857 145951059  434.803  360.774  44.287 -174.283  -7.80  -0.98  0000
   42  -0.300  4397 145951060  435.351  361.183  44.478 -174.302  -7.93  -1.11  0000
   43  -0.267  4327 145951061  437.589  362.296  45.156 -174.518  -7.99  -1.17  0000
   44  -0.234  5063 145951062  439.692  364.000  45.914 -174.549  -7.98  -1.16  0000
   45  -0.200  4700 145951063  442.102  364.759  46.569 -174.879  -7.92  -1.10  0000
   46  -0.167  5008 145951064  444.355  365.939  47.268 -175.064  -8.30  -1.48  0000
   47  -0.133  4607 145951065  447.378  367.176  48.147 -175.387  -8.32  -1.50  0000
   48  -0.100  6101 145951066  447.686  368.134  48.386 -175.217  -8.36  -1.54  0000
   49  -0.067  4932 145951067  450.363  368.722  49.077 -175.617  -8.31  -1.49  0000
   50  -0.033  4637 145951068  452.347  370.287  49.793 -175.636  -8.19  -1.37  0000
   51   0.000  6822 145951069  452.789  370.515  49.931 -175.669  -8.11  -1.29  0000
   52   0.033  5037 145951070  454.998  372.246  50.729 -175.692  -8.53  -1.71  0000
   53   0.067  4835 145951071  457.338  372.790  51.345 -176.014  -8.32  -1.50  0000
   54   0.100  6639 145951072  460.061  374.903  52.330 -176.039  -8.19  -1.37  0000
   55   0.133  5533 145951073  460.856  374.540  52.443 -176.269  -7.99  -1.17  0000
   56   0.167  5493 145951074  462.595  376.199  53.129 -176.211  -8.14  -1.32  0000
   57   0.200  5748 145951075  464.630  377.257  53.775 -176.343  -7.67  -0.85  0000
   58   0.234  4097 145951076  466.339  376.873  54.093 -176.734  -7.52  -0.70  0000
   59   0.267  5966 145951077  467.694  378.521  54.693 -176.607  -7.12  -0.30  0000
   60   0.300  5311 145951078  470.400  378.674  55.337 -177.044  -7.61  -0.79  0000
   61   0.334  4556 145951079  471.665  379.764  55.820 -177.022  -8.47  -1.65  0000
   62   0.367  4811 145951080  473.737  381.133  56.538 -177.076  -8.43  -1.61  0000
   63   0.400  5713 145951081  474.710  380.734  56.691 -177.325  -8.44  -1.62  0000
   64   0.434  5714 145951082  475.783  382.390  57.232 -177.148  -8.13  -1.31  0000
   65   0.467  5249 145951083  476.718  382.659  57.496 -177.246  -8.02  -1.20  0000
   66   0.501  4770 145951084  478.411  383.579  58.051 -177.328  -8.44  -1.62  0000
   67   0.534  5326 145951085  479.992  384.653  58.609 -177.359  -8.37  -1.55  0000
   68   0.567  5317 145951086  480.296  384.608  58.671 -177.417  -8.20  -1.38  0000
   69   0.601  3672 145951087  483.601  385.124  59.536 -177.835  -7.79  -0.97  0000
