#
#   version : 20090611
#    num_fr : 42
#      time : 20140420 05:25:13.767 UTC
#      unix : 1397971513.767290
#       ntp : LOCK -105 596388 689
#       seq : 69028505
#       mul : 0 [A]
#      site : 01
#    latlon : 45.5749 -94.3965 370.0
#      text : Collegeville
#     label : 
#     plate : metal_20100816_20100506-404-gd3
#      geom : 640 480
#    reject : 0
#
#  fr    time   sum     seq       cx       cy      th      phi    lsp    mag  flag
   29  -0.901  1499 69028478  373.568  417.322  47.375 -146.282  -5.88   0.94  0000
   30  -0.868  1898 69028479  375.947  418.263  47.862 -146.890  -6.50   0.32  0000
   31  -0.834  2056 69028480  376.439  418.327  47.929 -147.030  -6.61   0.21  0000
   32  -0.801  2378 69028481  379.452  417.271  47.977 -148.059  -6.78   0.04  0000
   33  -0.767  2098 69028482  379.771  417.580  48.091 -148.115  -6.94  -0.12  0000
   34  -0.734  2287 69028483  380.458  417.066  48.034 -148.383  -6.90  -0.08  0000
   35  -0.701  2360 69028484  382.318  417.095  48.249 -148.929  -7.03  -0.21  0000
   36  -0.667  2324 69028485  383.888  416.528  48.283 -149.462  -7.02  -0.20  0000
   37  -0.634  2412 69028486  384.384  415.939  48.190 -149.685  -7.09  -0.27  0000
   38  -0.601  2491 69028487  386.543  415.823  48.416 -150.329  -7.07  -0.25  0000
   39  -0.567  2240 69028488  387.702  415.961  48.590 -150.644  -7.21  -0.39  0000
   40  -0.534  2312 69028489  388.663  415.324  48.546 -151.008  -7.07  -0.25  0000
   41  -0.500  2557 69028490  391.780  415.251  48.916 -151.906  -7.52  -0.70  0000
   42  -0.467  2620 69028491  391.358  414.864  48.766 -151.841  -7.34  -0.52  0000
   43  -0.434  2684 69028492  394.075  414.614  49.052 -152.643  -7.46  -0.64  0000
   44  -0.400  3271 69028493  394.411  414.422  49.048 -152.765  -7.76  -0.94  0000
   45  -0.367  3320 69028494  397.217  414.482  49.434 -153.536  -7.79  -0.97  0000
   46  -0.334  3319 69028495  397.919  414.039  49.420 -153.795  -8.09  -1.27  0000
   47  -0.300  3606 69028496  399.238  413.372  49.436 -154.257  -8.00  -1.18  0000
   48  -0.267  3721 69028497  401.310  413.119  49.661 -154.860  -8.21  -1.39  0000
   49  -0.234  3990 69028498  402.712  412.816  49.786 -155.285  -8.25  -1.43  0000
   50  -0.200  3971 69028499  403.606  412.392  49.810 -155.592  -8.38  -1.56  0000
   51  -0.167  4036 69028500  405.776  412.120  50.059 -156.213  -8.29  -1.47  0000
   52  -0.133  3650 69028501  406.609  411.958  50.142 -156.459  -8.28  -1.46  0000
   53  -0.100  4423 69028502  408.984  411.668  50.427 -157.128  -8.45  -1.63  0000
   54  -0.067  4222 69028503  410.009  411.104  50.447 -157.486  -8.45  -1.63  0000
   55  -0.033  4403 69028504  411.222  410.489  50.486 -157.901  -8.49  -1.67  0000
   56   0.000  4712 69028505  413.585  410.248  50.796 -158.547  -8.51  -1.69  0000
   57   0.033  3874 69028506  414.535  410.166  50.927 -158.802  -8.27  -1.45  0000
   58   0.067  4241 69028507  415.934  409.451  50.981 -159.276  -8.16  -1.34  0000
   59   0.100  3900 69028508  417.637  408.965  51.142 -159.785  -8.33  -1.51  0000
   60   0.133  4420 69028509  418.487  408.458  51.163 -160.084  -8.39  -1.57  0000
   61   0.167  3561 69028510  420.984  408.228  51.522 -160.738  -8.30  -1.48  0000
   62   0.200  3586 69028511  421.661  407.817  51.540 -160.976  -8.14  -1.32  0000
   63   0.234  3734 69028512  424.753  407.215  51.926 -161.828  -8.23  -1.41  0000
   64   0.267  3583 69028513  426.050  406.714  52.035 -162.227  -8.03  -1.21  0000
   65   0.300  3365 69028514  426.736  406.045  52.003 -162.509  -7.98  -1.16  0000
   66   0.334  3248 69028515  429.239  405.970  52.425 -163.110  -7.84  -1.02  0000
   67   0.367  2673 69028516  430.277  405.415  52.485 -163.453  -7.54  -0.72  0000
   68   0.400  2609 69028517  431.410  404.478  52.479 -163.886  -7.11  -0.29  0000
   69   0.434  2389 69028518  433.533  404.061  52.771 -164.448  -6.74   0.08  0000
   70   0.467  1924 69028519  434.431  403.990  52.920 -164.665  -6.79   0.03  0000
