#
#   version : 20090611
#    num_fr : 34
#      time : 20091214 11:35:52.177 UTC
#      unix : 1260790552.177519
#       ntp : LOCK 152 350984 2673
#       seq : 107814244
#       mul : 0 [A]
#      site : 01
#    latlon : 45.5749 -94.3965 370.0
#      text : Collegeville
#     label : 
#     plate : 
#      geom : 640 480
#    reject : 0
#
#  fr    time   sum     seq       cx       cy      th      phi    lsp    mag  flag
   30  -0.567  3800 107814227  202.079   77.118  51.523   22.441  -6.59  -6.59  0000
   31  -0.534  4326 107814228  200.112   76.074  52.087   22.152  -6.56  -6.56  0000
   32  -0.501  3879 107814229  199.952   75.639  52.213   22.189  -7.07  -7.07  0000
   33  -0.467  4975 107814230  198.903   73.315  52.920   22.339  -7.32  -7.32  0000
   34  -0.434  4716 107814231  196.628   73.142  53.340   21.841  -7.45  -7.45  0000
   35  -0.400  5796 107814232  196.044   71.301  53.859   22.018  -7.94  -7.94  0000
   36  -0.367  4867 107814233  194.662   71.097  54.139   21.738  -8.27  -8.27  0000
   37  -0.334  5935 107814234  193.171   69.851  54.676   21.612  -8.53  -8.53  0000
   38  -0.300  6377 107814235  191.668   68.719  55.191   21.466  -8.68  -8.68  0000
   39  -0.267  6587 107814236  190.009   67.267  55.808   21.343  -8.82  -8.82  0000
   40  -0.234  6221 107814237  189.305   66.681  56.063   21.286  -8.76  -8.76  0000
   41  -0.200  6429 107814238  188.086   65.801  56.474   21.167  -8.73  -8.73  0000
   42  -0.167  7974 107814239  186.423   64.754  57.002   20.983  -8.79  -8.79  0000
   43  -0.133  8013 107814240  184.753   63.319  57.622   20.864  -8.85  -8.85  0000
   44  -0.100  8506 107814241  184.085   62.688  57.883   20.826  -8.83  -8.83  0000
   45  -0.067  6951 107814242  182.622   61.219  58.476   20.759  -8.80  -8.80  0000
   46  -0.033  5943 107814243  181.488   61.015  58.723   20.558  -8.85  -8.85  0000
   47   0.000  8687 107814244  179.714   59.320  59.426   20.468  -8.92  -8.92  0000
   48   0.033  7145 107814245  179.129   58.720  59.667   20.446  -8.98  -8.98  0000
   49   0.067  6989 107814246  177.461   57.235  60.305   20.347  -8.75  -8.75  0000
   50   0.100  5462 107814247  176.468   57.108  60.512   20.169  -8.86  -8.86  0000
   51   0.133  7131 107814248  175.174   55.566  61.098   20.157  -8.73  -8.73  0000
   52   0.167  4586 107814249  174.359   54.939  61.389   20.096  -8.53  -8.53  0000
   53   0.200  5230 107814250  171.926   53.966  62.054   19.778  -8.32  -8.32  0000
   54   0.234  6206 107814251  171.057   53.307  62.364   19.714  -8.31  -8.31  0000
   55   0.267  7404 107814252  170.082   51.960  62.852   19.738  -8.06  -8.06  0000
   56   0.300  4495 107814253  169.390   51.382  63.111   19.696  -8.10  -8.10  0000
   57   0.334  7206 107814254  167.371   50.609  63.661   19.437  -8.38  -8.38  0000
   58   0.367  4898 107814255  166.326   49.129  64.194   19.470  -8.31  -8.31  0000
   59   0.400  4870 107814256  165.131   48.409  64.582   19.360  -8.50  -8.50  0000
   60   0.434  5716 107814257  164.560   47.836  64.820   19.343  -8.27  -8.27  0000
   61   0.467  4115 107814258  162.348   46.791  65.475   19.100  -8.03  -8.03  0000
   62   0.501  3851 107814259  161.142   45.280  66.050   19.112  -7.47  -7.47  0000
   63   0.534  4675 107814260  160.932   44.970  66.161   19.121  -7.19  -7.19  0000
