#
#   version : 20090611
#    num_fr : 79
#      time : 20140902 02:04:51.618 UTC
#      unix : 1409623491.618855
#       ntp : LOCK 65 242855 1096
#       seq : 37269083
#       mul : 0 [A]
#      site : 01
#    latlon : 45.5749 -94.3965 370.0
#      text : Collegeville
#     label : 
#     plate : metal_20100816_20100506-404-gd3
#      geom : 640 480
#    reject : 0
#
#  fr    time   sum     seq       cx       cy      th      phi    lsp    mag  flag
   30  -0.167  5330 37269078  323.950    3.962  66.734   56.086  -8.30  -1.48  0000
   31  -0.133  6304 37269079  321.668    8.168  65.460   55.592  -8.67  -1.85  0000
   32  -0.100  7070 37269080  320.048   10.555  64.740   55.222  -8.67  -1.85  0000
   33  -0.067  7199 37269081  317.826   14.102  63.679   54.706  -8.79  -1.97  0000
   34  -0.033  7025 37269082  315.359   18.399  62.409   54.116  -8.73  -1.91  0000
   35   0.000  7564 37269083  312.563   22.383  61.244   53.416  -8.78  -1.96  0000
   36   0.033  7087 37269084  310.899   24.888  60.519   52.987  -8.74  -1.92  0000
   37   0.067  7358 37269085  309.013   29.100  59.308   52.490  -8.75  -1.93  0000
   38   0.100  7227 37269086  307.027   32.619  58.308   51.947  -8.76  -1.94  0000
   39   0.133  7555 37269087  305.225   35.172  57.591   51.442  -8.76  -1.94  0000
   40   0.167  6988 37269088  304.194   37.080  57.057   51.145  -8.76  -1.94  0000
   41   0.200  7004 37269089  303.954   39.158  56.465   51.064  -8.74  -1.92  0000
   42   0.234  6512 37269090  303.753   42.370  55.552   50.985  -8.58  -1.76  0000
   43   0.267  7188 37269091  303.437   45.349  54.709   50.870  -8.67  -1.85  0000
   44   0.300  6263 37269092  304.099   48.111  53.917   51.042  -8.79  -1.97  0000
   45   0.334  6800 37269093  303.996   50.531  53.234   50.993  -8.70  -1.88  0000
   46   0.367  6667 37269094  303.835   53.713  52.338   50.919  -8.55  -1.73  0000
   47   0.400  7010 37269095  303.115   56.277  51.627   50.676  -8.67  -1.85  0000
   48   0.434  7292 37269096  302.123   58.446  51.034   50.346  -8.63  -1.81  0000
   49   0.467  5526 37269097  301.094   60.074  50.595   50.005  -8.63  -1.81  0000
   50   0.500  6571 37269098  298.793   61.429  50.262   49.263  -8.44  -1.62  0000
   51   0.534  6991 37269099  298.047   64.669  49.374   48.965  -8.57  -1.75  0000
   52   0.567  7380 37269100  295.818   66.714  48.861   48.206  -8.57  -1.75  0000
   53   0.601  6552 37269101  295.196   67.600  48.632   47.983  -8.50  -1.68  0000
   54   0.634  7023 37269102  293.640   69.317  48.201   47.431  -8.48  -1.66  0000
   55   0.667  6217 37269103  292.671   70.309  47.957   47.085  -8.44  -1.62  0000
   56   0.701  7292 37269104  292.189   70.573  47.900   46.919  -8.55  -1.73  0000
   57   0.734  7049 37269105  291.821   71.388  47.687   46.772  -8.51  -1.69  0000
   58   0.767  6126 37269106  291.879   73.009  47.238   46.737  -8.47  -1.65  0000
   59   0.801  5808 37269107  290.851   74.424  46.884   46.346  -8.58  -1.76  0000
   60   0.834  6872 37269108  289.548   76.324  46.409   45.838  -8.54  -1.72  0000
   61   0.868  6473 37269109  288.320   78.704  45.805   45.325  -8.59  -1.77  0000
   62   0.901  5612 37269110  286.830   80.510  45.374   44.735  -8.51  -1.69  0000
   63   0.934  4623 37269111  284.917   84.076  44.490   43.897  -8.44  -1.62  0000
   64   0.968  5731 37269112  283.571   85.987  44.037   43.321  -8.40  -1.58  0000
   65   1.001  4540 37269113  281.284   89.116  43.312   42.324  -8.28  -1.46  0000
   66   1.034  6617 37269114  278.516   93.838  42.204   41.006  -8.25  -1.43  0000
   67   1.068  5608 37269115  277.048   96.003  41.718   40.306  -8.33  -1.51  0000
   68   1.101  5946 37269116  274.919  100.719  40.609   39.125  -8.28  -1.46  0000
   69   1.134  6698 37269117  273.594  104.475  39.713   38.279  -8.33  -1.51  0000
   70   1.168  6909 37269118  272.624  110.282  38.266   37.319  -8.49  -1.67  0000
   71   1.201  6130 37269119  272.747  112.524  37.671   37.126  -8.37  -1.55  0000
   72   1.235  6339 37269120  274.613  114.719  36.954   37.639  -8.28  -1.46  0000
   73   1.268  6239 37269121  277.688  116.717  36.204   38.694  -8.18  -1.36  0000
   74   1.301  6134 37269122  281.034  118.805  35.426   39.899  -8.14  -1.32  0000
   75   1.335  4759 37269123  284.282  120.553  34.762   41.141  -8.02  -1.20  0000
   76   1.368  4621 37269124  284.243  120.485  34.782   41.130  -7.83  -1.01  0000
   77   1.401  4692 37269125  285.397  121.412  34.470   41.556  -7.70  -0.88  0000
   78   1.435  5216 37269126  286.370  122.796  34.049   41.869  -7.87  -1.05  0000
   79   1.468  4349 37269127  286.831  123.050  33.956   42.054  -7.54  -0.72  0000
   80   1.502  3822 37269128  286.506  123.304  33.908   41.887  -7.66  -0.84  0000
   81   1.535  3565 37269129  288.084  124.976  33.379   42.461  -7.63  -0.81  0000
   82   1.568  3738 37269130  287.798  125.803  33.177   42.260  -7.72  -0.90  0000
   83   1.602  4891 37269131  290.849  126.420  32.857   43.622  -7.71  -0.89  0000
   84   1.635  5206 37269132  292.897  128.992  32.081   44.401  -7.66  -0.84  0000
   85   1.668  4511 37269133  295.792  129.763  31.757   45.742  -7.42  -0.60  0000
   86   1.702  4722 37269134  297.085  132.014  31.111   46.241  -7.35  -0.53  0000
   87   1.735  3426 37269135  301.011  132.766  30.788   48.158  -7.34  -0.52  0000
   88   1.768  5090 37269136  301.022  133.110  30.697   48.149  -7.40  -0.58  0000
   89   1.802  5127 37269137  302.690  134.854  30.191   48.925  -7.35  -0.53  0000
   90   1.835  4437 37269138  302.492  135.979  29.896   48.781  -7.22  -0.40  0000
   91   1.869  5003 37269139  302.324  136.475  29.768   48.674  -7.25  -0.43  0000
   92   1.902  4675 37269140  303.732  138.633  29.163   49.331  -6.87  -0.05  0000
   93   1.935  3135 37269141  303.045  140.953  28.562   48.877  -7.16  -0.34  0000
   94   1.969  4827 37269142  302.202  142.025  28.298   48.375  -7.56  -0.74  0000
   95   2.002  4237 37269143  301.504  142.183  28.275   47.988  -7.44  -0.62  0000
   96   2.035  3944 37269144  298.079  142.766  28.231   46.092  -6.92  -0.10  0000
   97   2.069  4821 37269145  296.020  141.817  28.561   45.047  -7.02  -0.20  0000
   99   2.135  3471 37269147  291.439  142.559  28.584   42.538  -6.77   0.05  0000
  100   2.169  3395 37269148  290.976  142.720  28.567   42.276  -6.59   0.23  0000
  103   2.269  2075 37269151  316.836  149.391  26.246   56.615  -5.41   1.41  0002
  104   2.302  4217 37269152  286.280  146.690  27.824   39.309  -6.08   0.74  0000
  106   2.369  3797 37269154  285.694  148.208  27.474   38.790  -6.47   0.35  0000
  108   2.436  3512 37269156  284.840  151.085  26.798   37.913  -5.88   0.94  0000
  109   2.469  3365 37269157  283.969  152.147  26.593   37.268  -6.57   0.25  0000
  110   2.503  3993 37269158  283.177  153.080  26.419   36.677  -6.62   0.20  0000
  112   2.569  4287 37269160  283.859  155.919  25.644   36.599  -6.46   0.36  0000
  115   2.669  3943 37269163  275.300  156.835  26.199   31.611  -6.31   0.51  0000
  118   2.769  3332 37269166  268.050  156.965  26.975   27.722  -6.51   0.31  0000
