#
#   version : 20090611
#    num_fr : 36
#      time : 20130813 08:39:30.341 UTC
#      unix : 1376383170.341952
#       ntp : LOCK -1709 1111078 2568
#       seq : 69139386
#       mul : 0 [A]
#      site : 01
#    latlon : 45.5749 -94.3965 370.0
#      text : Collegeville
#     label : 
#     plate : metal_20100816_20100506-404-gd3
#      geom : 640 480
#    reject : 0
#
#  fr    time   sum     seq       cx       cy      th      phi    lsp    mag  flag
   29  -0.267  2560 69139378  107.053  189.345  59.138  -20.841  -6.76   0.06  0000
   30  -0.234  3225 69139379  105.118  187.558  59.841  -20.553  -7.43  -0.61  0000
   31  -0.200  3922 69139380  104.472  186.644  60.103  -20.380  -8.09  -1.27  0000
   32  -0.167  4845 69139381  103.590  185.263  60.473  -20.115  -8.52  -1.70  0000
   33  -0.133  5217 69139382  102.582  183.685  60.898  -19.816  -8.60  -1.78  0000
   34  -0.100  6774 69139383  101.432  182.110  61.366  -19.532  -9.14  -2.32  0000
   35  -0.067  6340 69139384  100.580  181.140  61.698  -19.372  -8.91  -2.09  0000
   36  -0.033  6645 69139385   99.490  179.184  62.187  -19.002  -9.00  -2.18  0000
   37   0.000  7977 69139386   99.104  178.193  62.389  -18.802  -9.28  -2.46  0000
   38   0.033  7010 69139387   98.271  176.288  62.805  -18.430  -9.28  -2.46  0000
   39   0.067  6973 69139388   97.724  174.627  63.120  -18.094  -9.06  -2.24  0000
   40   0.100  6867 69139389   96.455  173.404  63.603  -17.923  -9.05  -2.23  0000
   41   0.133  7563 69139390   96.036  172.014  63.859  -17.644  -9.22  -2.40  0000
   42   0.167  6573 69139391   94.997  170.262  64.331  -17.339  -9.01  -2.19  0000
   43   0.200  6441 69139392   94.486  168.973  64.608  -17.096  -8.89  -2.07  0000
   44   0.234  6047 69139393   94.079  167.480  64.876  -16.800  -8.82  -2.00  0000
   45   0.267  6527 69139394   93.044  166.193  65.307  -16.608  -9.04  -2.22  0000
   46   0.300  6295 69139395   92.450  164.841  65.620  -16.364  -8.91  -2.09  0000
   47   0.334  6452 69139396   91.244  163.197  66.141  -16.115  -8.93  -2.11  0000
   48   0.367  6734 69139397   90.820  161.572  66.437  -15.802  -8.90  -2.08  0000
   49   0.400  7059 69139398   89.993  159.880  66.860  -15.515  -9.14  -2.32  0000
   50   0.434  7053 69139399   89.552  159.065  67.077  -15.382  -9.06  -2.24  0000
   51   0.467  7170 69139400   88.711  157.106  67.537  -15.045  -9.01  -2.19  0000
   52   0.501  7357 69139401   87.970  155.741  67.905  -14.827  -9.13  -2.31  0000
   53   0.534  6888 69139402   87.589  154.684  68.135  -14.642  -9.08  -2.26  0000
   54   0.567  7138 69139403   86.731  152.786  68.602  -14.329  -9.05  -2.23  0000
   55   0.601  7238 69139404   85.952  151.153  69.018  -14.066  -9.09  -2.27  0000
   56   0.634  7574 69139405   85.770  149.911  69.217  -13.830  -9.21  -2.39  0000
   57   0.667  7115 69139406   84.711  148.758  69.660  -13.697  -9.08  -2.26  0000
   58   0.701  7400 69139407   84.036  147.270  70.035  -13.461  -9.10  -2.28  0000
   59   0.734  7584 69139408   83.750  146.316  70.233  -13.297  -9.17  -2.35  0000
   60   0.767  6342 69139409   83.736  145.409  70.349  -13.116  -8.77  -1.95  0000
   61   0.801  4987 69139410   83.404  143.936  70.627  -12.855  -8.21  -1.39  0000
   62   0.834  4244 69139411   83.445  143.342  70.690  -12.733  -7.82  -1.00  0000
   63   0.868  3587 69139412   82.172  141.589  71.277  -12.512  -7.38  -0.56  0000
   64   0.901  3097 69139413   81.859  141.606  71.365  -12.547  -7.02  -0.20  0000
