#
#   version : 20090611
#    num_fr : 57
#      time : 20121104 10:49:03.203 UTC
#      unix : 1352026143.203805
#       ntp : LOCK 170 724883 701
#       seq : 184844499
#       mul : 0 [A]
#      site : 01
#    latlon : 45.5749 -94.3965 370.0
#      text : Collegeville
#     label : 
#     plate : metal_20100816_20100506-404-gd3
#      geom : 640 480
#    reject : 0
#
#  fr    time   sum     seq       cx       cy      th      phi    lsp    mag  flag
   29  -1.535  3820 184844453  234.215  241.999  20.873  -30.663  -6.98  -0.16  0000
   30  -1.502  4408 184844454  231.184  239.354  21.771  -29.086  -7.22  -0.40  0000
   31  -1.468  5464 184844455  230.117  237.474  22.127  -27.929  -7.30  -0.48  0000
   32  -1.435  4693 184844456  229.783  236.923  22.239  -27.598  -7.75  -0.93  0000
   33  -1.401  3915 184844457  228.007  235.162  22.792  -26.650  -7.74  -0.92  0000
   34  -1.368  4608 184844458  226.687  233.994  23.200  -26.063  -7.76  -0.94  0000
   35  -1.335  4585 184844459  224.661  232.889  23.798  -25.624  -7.97  -1.15  0000
   36  -1.301  5426 184844460  222.886  231.047  24.369  -24.732  -8.18  -1.36  0000
   37  -1.268  4384 184844461  221.495  229.349  24.835  -23.913  -8.13  -1.31  0000
   38  -1.235  7306 184844462  218.713  227.470  25.688  -23.218  -8.34  -1.52  0000
   39  -1.201  7575 184844463  218.092  226.882  25.890  -22.975  -8.44  -1.62  0000
   40  -1.168  5132 184844464  216.074  225.018  26.546  -22.236  -8.32  -1.50  0000
   41  -1.134  5777 184844465  214.638  223.122  27.055  -21.428  -8.26  -1.44  0000
   42  -1.101  5926 184844466  212.154  221.202  27.848  -20.798  -8.15  -1.33  0000
   43  -1.068  6612 184844467  210.744  219.412  28.353  -20.103  -8.34  -1.52  0000
   44  -1.034  7967 184844468  208.751  217.429  29.031  -19.429  -8.59  -1.77  0000
   45  -1.001  6511 184844469  207.718  217.351  29.310  -19.554  -8.47  -1.65  0000
   46  -0.968  7874 184844470  205.526  214.874  30.085  -18.711  -8.47  -1.65  0000
   47  -0.934  8329 184844471  203.571  212.964  30.757  -18.134  -8.59  -1.77  0000
   48  -0.901  6902 184844472  201.740  210.944  31.411  -17.511  -8.58  -1.76  0000
   49  -0.868  4463 184844473  201.079  209.431  31.718  -16.944  -8.59  -1.77  0000
   50  -0.834  5867 184844474  200.463  209.366  31.885  -17.018  -8.41  -1.59  0000
   51  -0.801  6262 184844475  198.605  207.461  32.543  -16.493  -8.55  -1.73  0000
   52  -0.767  5858 184844476  195.531  205.086  33.566  -15.995  -8.47  -1.65  0000
   53  -0.734  5312 184844477  194.142  203.296  34.099  -15.485  -8.51  -1.69  0000
   54  -0.701  6405 184844478  192.379  202.079  34.676  -15.283  -8.46  -1.64  0000
   55  -0.667  5837 184844479  190.807  199.763  35.315  -14.624  -8.43  -1.61  0000
   56  -0.634  4310 184844480  189.851  199.429  35.596  -14.652  -8.28  -1.46  0000
   57  -0.601  6223 184844481  187.791  196.966  36.382  -14.046  -8.07  -1.25  0000
   58  -0.567  4966 184844482  186.087  195.172  37.010  -13.654  -8.23  -1.41  0000
   59  -0.534  5150 184844483  183.964  193.786  37.706  -13.495  -8.58  -1.76  0000
   60  -0.501  4835 184844484  183.404  191.754  38.070  -12.850  -8.53  -1.71  0000
   61  -0.467  5543 184844485  181.511  190.128  38.736  -12.586  -8.48  -1.66  0000
   62  -0.434  5700 184844486  180.465  187.966  39.248  -12.003  -8.21  -1.39  0000
   63  -0.400  4288 184844487  178.039  187.070  39.972  -12.099  -8.44  -1.62  0000
   64  -0.367  3996 184844488  176.996  185.933  40.369  -11.885  -8.40  -1.58  0000
   65  -0.334  5684 184844489  175.991  184.046  40.845  -11.418  -8.30  -1.48  0000
   66  -0.300  5257 184844490  174.055  181.925  41.590  -11.041  -8.45  -1.63  0000
   67  -0.267  6981 184844491  170.929  179.929  42.628  -10.912  -9.08  -2.26  0000
   68  -0.234  7668 184844492  169.505  178.019  43.223  -10.541  -8.95  -2.13  0000
   69  -0.200  4663 184844493  168.895  177.231  43.475  -10.395  -8.63  -1.81  0000
   70  -0.167  5890 184844494  167.002  175.609  44.157  -10.203  -8.78  -1.96  0000
   71  -0.133  5712 184844495  165.369  173.059  44.892   -9.697  -8.84  -2.02  0000
   72  -0.100  8103 184844496  163.467  171.165  45.615   -9.442  -8.93  -2.11  0000
   73  -0.067  8796 184844497  161.544  169.364  46.336   -9.226  -9.10  -2.28  0000
   74  -0.033  6310 184844498  160.984  169.476  46.464   -9.348  -8.74  -1.92  0000
   75   0.000  9690 184844499  158.382  166.939  47.455   -9.036  -8.67  -1.85  0000
   76   0.033  7661 184844500  156.612  165.080  48.149   -8.795  -8.66  -1.84  0000
   77   0.067  6621 184844501  156.718  164.127  48.247   -8.515  -8.72  -1.90  0000
   78   0.100  6747 184844502  155.121  162.860  48.822   -8.419  -8.67  -1.85  0000
   79   0.133  6463 184844503  153.801  161.631  49.322   -8.292  -8.63  -1.81  0000
   80   0.167  4785 184844504  152.005  159.630  50.049   -8.036  -8.45  -1.63  0000
   81   0.200  5335 184844505  150.942  158.061  50.533   -7.788  -8.14  -1.32  0000
   82   0.234  5227 184844506  150.550  157.618  50.693   -7.733  -8.10  -1.28  0000
   83   0.267  5069 184844507  148.335  155.136  51.598   -7.433  -7.89  -1.07  0000
   86   0.367  3649 184844510  144.756  151.338  53.040   -7.024  -7.55  -0.73  0000
   87   0.400  3986 184844511  144.526  150.916  53.158   -6.955  -7.14  -0.32  0000
