#
#   version : 20090611
#    num_fr : 39
#      time : 20140812 02:47:03.914 UTC
#      unix : 1407811623.914627
#       ntp : LOCK 197 1083713 277
#       seq : 26638127
#       mul : 0 [A]
#      site : 01
#    latlon : 45.5749 -94.3965 370.0
#      text : Collegeville
#     label : 
#     plate : metal_20100816_20100506-404-gd3
#      geom : 640 480
#    reject : 0
#
#  fr    time   sum     seq       cx       cy      th      phi    lsp    mag  flag
   30  -0.334  3872 26638117  381.428   67.970  51.997   75.045  -6.19   0.63  0000
   33  -0.234  3379 26638120  386.907   74.763  50.838   77.395  -6.49   0.33  0000
   36  -0.133  3474 26638123  391.378   82.728  49.354   79.716  -6.77   0.05  0000
   37  -0.100  3977 26638124  394.029   84.200  49.323   80.681  -6.93  -0.11  0000
   38  -0.067  3229 26638125  394.697   86.202  48.913   81.161  -6.84  -0.02  0000
   39  -0.033  3090 26638126  397.796   90.600  48.251   82.710  -6.62   0.20  0000
   40   0.000  4734 26638127  400.035   93.023  47.978   83.731  -6.92  -0.10  0000
   41   0.033  1991 26638128  401.030   94.426  47.783   84.241  -6.42   0.40  0000
   43   0.100  3741 26638130  404.192   97.833  47.439   85.707  -6.90  -0.08  0000
   44   0.133  3977 26638131  407.953  100.617  47.365   87.247  -6.85  -0.03  0000
   45   0.167  3292 26638132  410.877  102.474  47.402   88.388  -6.89  -0.07  0000
   48   0.267  3719 26638135  419.390  110.576  47.031   92.238  -6.76   0.06  0000
   49   0.300  3848 26638136  421.006  112.736  46.852   93.102  -6.75   0.07  0000
   50   0.334  4367 26638137  424.684  114.920  47.057   94.505  -6.61   0.21  0000
   51   0.367  3308 26638138  426.005  117.149  46.837   95.317  -7.24  -0.42  0000
   52   0.400  3305 26638139  428.026  120.014  46.631   96.452  -7.15  -0.33  0000
   53   0.434  3415 26638140  432.732  122.618  47.024   98.185  -6.97  -0.15  0000
   54   0.467  3602 26638141  434.785  124.605  47.042   99.128  -6.69   0.13  0000
   55   0.500  4070 26638142  437.834  126.950  47.210  100.385  -6.91  -0.09  0000
   56   0.534  3423 26638143  437.406  127.917  46.937  100.515  -6.98  -0.16  0000
   57   0.567  3715 26638144  441.442  130.872  47.225  102.135  -6.91  -0.09  0000
   58   0.601  3590 26638145  445.982  134.270  47.582  103.952  -6.84  -0.02  0000
   59   0.634  3499 26638146  447.881  136.340  47.632  104.866  -6.53   0.29  0000
   60   0.667  2885 26638147  451.117  138.783  47.930  106.143  -6.35   0.47  0000
   63   0.767  3135 26638150  459.795  146.610  48.647  109.819  -6.97  -0.15  0000
   64   0.801  4659 26638151  461.349  149.026  48.641  110.731  -6.66   0.16  0000
   65   0.834  3256 26638152  464.275  150.387  49.136  111.603  -6.86  -0.04  0000
   66   0.868  2569 26638153  466.849  154.264  49.193  113.066  -6.76   0.06  0000
   69   0.968  2960 26638156  474.248  162.084  49.964  116.332  -6.57   0.25  0000
   70   1.001  4367 26638157  477.971  166.777  50.321  118.145  -6.38   0.44  0000
   71   1.034  3612 26638158  477.290  168.146  49.979  118.427  -6.68   0.14  0000
   75   1.168  3356 26638162  486.427  178.425  51.220  122.435  -6.47   0.35  0000
   76   1.201  2887 26638163  488.084  180.823  51.419  123.290  -5.43   1.39  0000
   78   1.268  3124 26638165  490.285  186.069  51.508  124.994  -6.62   0.20  0000
   79   1.301  2996 26638166  493.031  189.004  51.993  126.091  -5.78   1.04  0000
   80   1.335  3267 26638167  494.817  191.016  52.310  126.823  -6.21   0.61  0000
   83   1.435  2024 26638170  498.111  198.623  52.624  129.242  -6.47   0.35  0000
   85   1.501  3065 26638172  499.153  202.030  52.675  130.285  -5.80   1.02  0000
   86   1.535  3208 26638173  501.100  204.102  53.083  131.010  -5.71   1.11  0000
