#
#   version : 20090611
#    num_fr : 31
#      time : 20110226 04:30:46.760 UTC
#      unix : 1298694646.760351
#       ntp : LOCK -277 852425 947
#       seq : 114761595
#       mul : 0 [A]
#      site : 01
#    latlon : 45.5749 -94.3965 370.0
#      text : Collegeville
#     label : 
#     plate : metal_20100816_20100506-404-gd3
#      geom : 640 480
#    reject : 0
#
#  fr    time   sum     seq       cx       cy      th      phi    lsp    mag  flag
   30  -0.501  2819 114761580  271.869  160.713  25.628   28.857  -6.77  -6.77  0000
   33  -0.400  3931 114761583  276.841  158.458  25.643   32.125  -7.48  -7.48  0000
   34  -0.367  3683 114761584  278.924  157.189  25.755   33.554  -7.54  -7.54  0000
   35  -0.334  3701 114761585  279.376  156.704  25.834   33.902  -7.66  -7.66  0000
   36  -0.300  4074 114761586  281.123  155.833  25.895   35.051  -7.71  -7.71  0000
   37  -0.267  4254 114761587  282.050  154.774  26.082   35.762  -7.81  -7.81  0000
   38  -0.234  5821 114761588  283.282  153.906  26.200   36.603  -7.73  -7.73  0000
   39  -0.200  4054 114761589  286.411  153.785  25.992   38.403  -7.65  -7.65  0000
   40  -0.167  4802 114761590  286.900  152.861  26.194   38.816  -7.76  -7.76  0000
   41  -0.133  5282 114761591  288.078  151.806  26.385   39.632  -8.08  -8.08  0000
   42  -0.100  4748 114761592  289.548  150.849  26.537   40.590  -8.14  -8.14  0000
   43  -0.067  3875 114761593  291.679  149.740  26.699   41.929  -7.91  -7.91  0000
   44  -0.033  5232 114761594  292.415  148.972  26.858   42.427  -8.15  -8.15  0000
   45   0.000  7171 114761595  293.714  148.094  27.020   43.247  -8.56  -8.56  0000
   46   0.033  4902 114761596  296.155  147.613  27.032   44.667  -8.09  -8.09  0000
   47   0.067  3772 114761597  297.550  146.683  27.219   45.526  -7.99  -7.99  0000
   48   0.100  5390 114761598  298.571  145.870  27.395   46.156  -7.94  -7.94  0000
   49   0.133  3814 114761599  301.276  145.477  27.410   47.695  -7.89  -7.89  0000
   50   0.167  3608 114761600  302.049  143.789  27.835   48.210  -7.85  -7.85  0000
   51   0.200  7050 114761601  305.038  143.702  27.790   49.870  -8.48  -8.48  0000
   52   0.234  6271 114761602  306.362  142.220  28.162   50.642  -8.28  -8.28  0000
   53   0.267  5042 114761603  307.117  141.653  28.302   51.068  -8.21  -8.21  0000
   54   0.300  5208 114761604  310.717  140.837  28.489   53.036  -8.22  -8.22  0000
   55   0.334  4473 114761605  311.458  139.758  28.774   53.437  -8.09  -8.09  0000
   56   0.367  3308 114761606  314.618  138.810  29.034   55.118  -7.80  -7.80  0000
   57   0.400  4254 114761607  314.998  137.977  29.258   55.306  -7.90  -7.90  0000
   58   0.434  4838 114761608  317.782  137.734  29.352   56.767  -7.64  -7.64  0000
   59   0.467  3403 114761609  319.033  136.652  29.660   57.386  -7.37  -7.37  0000
   60   0.501  2679 114761610  320.551  135.551  29.981   58.128  -7.38  -7.38  0000
   61   0.534  4041 114761611  323.769  134.885  30.237   59.742  -7.73  -7.73  0000
   62   0.567  4327 114761612  325.156  133.732  30.584   60.376  -7.72  -7.72  0000
