#
#   version : 20090611
#    num_fr : 50
#      time : 20130218 02:45:42.789 UTC
#      unix : 1361155542.789207
#       ntp : LOCK 236 907993 137
#       seq : 59968524
#       mul : 0 [A]
#      site : 01
#    latlon : 45.5749 -94.3965 370.0
#      text : Collegeville
#     label : 
#     plate : metal_20100816_20100506-404-gd3
#      geom : 640 480
#    reject : 0
#
#  fr    time   sum     seq       cx       cy      th      phi    lsp    mag  flag
   30  -0.434  3767 59968511  398.141   53.608  57.632   77.896  -6.78   0.04  0000
   32  -0.367  4043 59968513  402.169   54.671  57.850   79.026  -6.68   0.14  0000
   33  -0.334  4021 59968514  402.563   54.887  57.843   79.149  -6.64   0.18  0000
   34  -0.300  4802 59968515  404.914   54.957  58.124   79.739  -7.34  -0.52  0000
   35  -0.267  2300 59968516  405.214   54.574  58.262   79.767  -7.22  -0.40  0000
   36  -0.234  3823 59968517  407.173   55.690  58.230   80.381  -7.47  -0.65  0000
   37  -0.200  4077 59968518  407.584   55.658  58.293   80.478  -7.48  -0.66  0000
   38  -0.167  4813 59968519  410.343   56.509  58.445   81.252  -7.84  -1.02  0000
   39  -0.133  5312 59968520  411.091   55.937  58.692   81.361  -8.07  -1.25  0000
   40  -0.100  3417 59968521  412.958   56.778  58.736   81.915  -7.90  -1.08  0000
   41  -0.067  4874 59968522  413.635   56.925  58.793   82.095  -8.16  -1.34  0000
   42  -0.033  5139 59968523  415.938   57.846  58.886   82.761  -8.30  -1.48  0000
   43   0.000  7444 59968524  416.320   57.937  58.918   82.863  -8.37  -1.55  0000
   44   0.033  5925 59968525  418.033   58.715  58.970   83.368  -8.28  -1.46  0000
   45   0.067  5542 59968526  419.436   58.245  59.292   83.634  -8.18  -1.36  0000
   46   0.100  3489 59968527  421.854   58.817  59.508   84.272  -8.19  -1.37  0000
   47   0.133  3365 59968528  421.942   59.691  59.305   84.410  -8.02  -1.20  0000
   48   0.167  4517 59968529  424.257   59.780  59.634   84.955  -8.04  -1.22  0000
   49   0.200  5002 59968530  425.246   60.499  59.609   85.280  -8.03  -1.21  0000
   50   0.234  4375 59968531  427.573   60.732  59.913   85.840  -8.09  -1.27  0000
   51   0.267  4632 59968532  427.566   61.613  59.697   85.962  -7.71  -0.89  0000
   52   0.300  4841 59968533  429.947   62.269  59.915   86.590  -7.82  -1.00  0000
   53   0.334  4659 59968534  431.141   61.706  60.243   86.776  -7.78  -0.96  0000
   54   0.367  4102 59968535  432.934   62.575  60.324   87.298  -7.88  -1.06  0000
   55   0.400  3875 59968536  433.891   62.033  60.611   87.430  -7.53  -0.71  0000
   56   0.434  4996 59968537  435.975   63.770  60.540   88.139  -7.56  -0.74  0000
   57   0.467  3743 59968538  436.208   63.772  60.578   88.190  -7.56  -0.74  0000
   58   0.500  4379 59968539  438.001   64.589  60.686   88.699  -7.36  -0.54  0000
   59   0.534  6047 59968540  439.319   64.162  61.011   88.919  -7.49  -0.67  0000
   60   0.567  4313 59968541  441.186   65.591  60.995   89.531  -7.30  -0.48  0000
   61   0.601  3663 59968542  441.281   65.893  60.940   89.597  -7.04  -0.22  0000
   62   0.634  3311 59968543  444.085   65.960  61.414   90.199  -6.71   0.11  0000
   66   0.767  3987 59968547  450.069   68.519  61.898   91.831  -7.27  -0.45  0000
   67   0.801  3745 59968548  450.165   68.670  61.881   91.875  -7.14  -0.32  0000
   68   0.834  3841 59968549  452.356   69.842  62.018   92.503  -6.92  -0.10  0000
   69   0.868  5815 59968550  454.868   70.504  62.339   93.112  -8.03  -1.21  0000
   70   0.901  4819 59968551  455.269   70.753  62.358   93.231  -7.61  -0.79  0000
   72   0.968  4145 59968553  458.283   72.570  62.527   94.118  -6.88  -0.06  0000
   73   1.001  3919 59968554  458.537   72.619  62.566   94.176  -7.54  -0.72  0000
   74   1.034  3307 59968555  461.011   72.522  63.067   94.640  -7.65  -0.83  0000
   75   1.068  4459 59968556  462.105   73.021  63.171   94.932  -7.87  -1.05  0000
   76   1.101  3828 59968557  463.863   73.698  63.370   95.378  -8.07  -1.25  0000
   77   1.134  5032 59968558  464.283   73.997  63.388   95.507  -7.53  -0.71  0000
   78   1.168  3483 59968559  465.935   74.827  63.537   95.955  -7.55  -0.73  0000
   79   1.201  4573 59968560  466.312   75.731  63.417   96.176  -7.39  -0.57  0000
   80   1.235  4451 59968561  469.177   75.686  64.007   96.701  -7.53  -0.71  0000
   81   1.268  3450 59968562  469.623   75.818  64.070   96.805  -7.33  -0.51  0000
   82   1.301  4364 59968563  471.191   77.530  64.026   97.380  -7.21  -0.39  0000
   83   1.335  3486 59968564  471.482   77.847  64.019   97.486  -6.88  -0.06  0000
   85   1.401  3881 59968566  474.860   78.820  64.518   98.260  -7.05  -0.23  0000
