#
#   version : 20090611
#    num_fr : 20
#      time : 20100816 04:37:38.714 UTC
#      unix : 1281933458.714376
#       ntp : LOCK -2803 232491 656
#       seq : 5681910
#       mul : 0 [A]
#      site : 01
#    latlon : 45.5749 -94.3965 370.0
#      text : Collegeville
#     label : 
#     plate : metal 20090611
#      geom : 640 480
#    reject : 0
#
#  fr    time   sum     seq       cx       cy      th      phi    lsp    mag  flag
   30  -0.434  1389 5681897  160.907  111.050  52.614    6.845  -6.00  -6.00  0000
   31  -0.400  1663 5681898  161.396  109.894  52.711    7.194  -6.20  -6.20  0000
   32  -0.367  1685 5681899  161.874  108.585  52.840    7.574  -6.42  -6.42  0000
   33  -0.334  2327 5681900  162.352  107.452  52.940    7.913  -7.44  -7.44  0000
   34  -0.300  2659 5681901  162.241  106.706  53.100    8.058  -7.77  -7.77  0000
   35  -0.267  2543 5681902  163.216  105.625  53.085    8.475  -7.66  -7.66  0000
   36  -0.234  2649 5681903  163.715  104.872  53.115    8.732  -7.51  -7.51  0000
   37  -0.200  2522 5681904  164.667  103.924  53.085    9.115  -7.52  -7.52  0000
   38  -0.167  2634 5681905  165.699  102.912  53.052    9.528  -7.63  -7.63  0000
   39  -0.133  2577 5681906  165.350  102.083  53.283    9.641  -7.50  -7.50  0000
   40  -0.100  2354 5681907  166.170  100.859  53.339   10.058  -7.41  -7.41  0000
   41  -0.067  2520 5681908  166.926   99.794  53.381   10.428  -7.30  -7.30  0000
   42  -0.033  2513 5681909  167.169   99.118  53.460   10.618  -7.40  -7.40  0000
   43   0.000  5325 5681910  168.242   97.304  53.584   11.204  -8.74  -8.74  0000
   44   0.033  4993 5681911  168.541   95.971  53.781   11.539  -8.80  -8.80  0000
   45   0.067  4545 5681912  169.292   95.423  53.733   11.798  -8.56  -8.56  0000
   46   0.100  3518 5681913  170.359   94.365  53.722   12.223  -7.95  -7.95  0000
   47   0.133  2579 5681914  170.703   93.852  53.753   12.396  -7.47  -7.47  0000
   48   0.167  2029 5681915  171.193   92.982  53.826   12.669  -6.78  -6.78  0000
   49   0.200  1836 5681916  171.552   91.708  54.007   12.998  -6.51  -6.51  0000
