#
#   version : 20090611
#    num_fr : 42
#      time : 20131014 02:44:53.216 UTC
#      unix : 1381718693.216649
#       ntp : LOCK -1785 403218 1974
#       seq : 124228783
#       mul : 0 [A]
#      site : 01
#    latlon : 45.5749 -94.3965 370.0
#      text : Collegeville
#     label : 
#     plate : metal_20100816_20100506-404-gd3
#      geom : 640 480
#    reject : 0
#
#  fr    time   sum     seq       cx       cy      th      phi    lsp    mag  flag
   30  -1.134  3184 124228749  477.448  170.200  49.774  119.018  -5.99   0.83  0000
   35  -0.968  2876 124228754  484.166  173.998  51.095  120.939  -6.01   0.81  0000
   38  -0.868  3005 124228757  489.622  176.672  52.256  122.320  -6.56   0.26  0000
   39  -0.834  3041 124228758  490.005  176.817  52.343  122.403  -6.63   0.19  0000
   42  -0.734  3152 124228761  494.989  178.921  53.470  123.520  -6.56   0.26  0000
   43  -0.701  2130 124228762  495.005  178.819  53.484  123.494  -6.29   0.53  0000
   44  -0.667  4087 124228763  497.090  179.973  53.936  124.022  -6.63   0.19  0000
   45  -0.634  3728 124228764  498.174  180.952  54.136  124.394  -6.53   0.29  0000
   47  -0.567  3797 124228766  501.136  181.871  54.859  124.932  -7.05  -0.23  0000
   48  -0.534  3492 124228767  501.182  182.135  54.847  125.007  -6.54   0.28  0000
   49  -0.500  4014 124228768  502.942  183.191  55.233  125.454  -7.24  -0.42  0000
   50  -0.467  2953 124228769  502.807  183.762  55.144  125.592  -7.03  -0.21  0000
   51  -0.434  3143 124228770  505.011  184.886  55.651  126.093  -6.95  -0.13  0000
   52  -0.400  3998 124228771  505.147  185.203  55.661  126.188  -6.77   0.05  0000
   53  -0.367  4064 124228772  507.137  186.049  56.140  126.587  -7.08  -0.26  0000
   54  -0.334  3572 124228773  508.187  186.725  56.374  126.856  -6.69   0.13  0000
   55  -0.300  3500 124228774  508.629  187.024  56.472  126.972  -6.93  -0.11  0000
   56  -0.267  4131 124228775  511.342  187.736  57.170  127.385  -7.17  -0.35  0000
   57  -0.234  3108 124228776  512.821  188.850  57.494  127.793  -7.00  -0.18  0000
   58  -0.200  4049 124228777  513.318  189.020  57.620  127.877  -7.71  -0.89  0000
   59  -0.167  4509 124228778  512.999  189.929  57.457  128.086  -7.51  -0.69  0000
   60  -0.133  3525 124228779  515.740  190.261  58.204  128.385  -7.56  -0.74  0000
   61  -0.100  3182 124228780  515.717  191.033  58.137  128.581  -7.18  -0.36  0000
   62  -0.067  3703 124228781  517.263  192.023  58.499  128.950  -7.42  -0.60  0000
   63  -0.033  2612 124228782  518.583  192.833  58.813  129.254  -7.16  -0.34  0000
   64   0.000  4587 124228783  518.661  193.072  58.818  129.320  -7.28  -0.46  0000
   65   0.033  3997 124228784  520.333  194.001  59.226  129.674  -6.97  -0.15  0000
   66   0.067  3697 124228785  521.407  194.094  59.526  129.773  -7.18  -0.36  0000
   67   0.100  4470 124228786  522.343  195.706  59.679  130.243  -7.12  -0.30  0000
   68   0.133  3754 124228787  522.592  195.939  59.734  130.318  -7.14  -0.32  0000
   69   0.167  3657 124228788  524.940  196.760  60.352  130.679  -6.73   0.09  0000
   70   0.200  4431 124228789  525.325  196.926  60.452  130.745  -7.04  -0.22  0000
   71   0.234  2768 124228790  525.797  198.744  60.466  131.229  -7.06  -0.24  0000
   72   0.267  4089 124228791  527.368  197.925  60.974  131.123  -7.08  -0.26  0000
   73   0.300  3929 124228792  528.111  199.051  61.116  131.448  -6.65   0.17  0000
   74   0.334  4001 124228793  529.947  200.470  61.558  131.908  -7.10  -0.28  0000
   75   0.367  4168 124228794  530.216  200.853  61.612  132.018  -6.87  -0.05  0000
   76   0.400  3166 124228795  530.289  201.199  61.612  132.107  -6.90  -0.08  0000
   77   0.434  2641 124228796  532.171  201.837  62.121  132.371  -6.75   0.07  0000
   78   0.467  4062 124228797  532.164  202.102  62.103  132.436  -6.50   0.32  0000
   79   0.500  3275 124228798  534.982  202.736  62.889  132.745  -5.67   1.15  0000
   85   0.701  2191 124228804  539.695  206.643  64.058  133.927  -6.15   0.67  0000
