#
#   version : 20090611
#    num_fr : 37
#      time : 20131206 02:53:57.580 UTC
#      unix : 1386298437.580829
#       ntp : LOCK 9472 532350 6001
#       seq : 261480610
#       mul : 0 [A]
#      site : 01
#    latlon : 45.5749 -94.3965 370.0
#      text : Collegeville
#     label : 
#     plate : metal_20100816_20100506-404-gd3
#      geom : 640 480
#    reject : 0
#
#  fr    time   sum     seq       cx       cy      th      phi    lsp    mag  flag
   30  -0.968  2085 261480581  402.162  129.802  39.896   91.527  -6.17   0.65  0000
   31  -0.934  2085 261480582  402.409  129.693  39.962   91.577  -5.90   0.92  0000
   32  -0.901  2411 261480583  406.186  129.251  40.707   92.621  -6.30   0.52  0000
   33  -0.868  2262 261480584  406.118  129.005  40.748   92.543  -6.39   0.43  0000
   34  -0.834  2525 261480585  406.748  128.988  40.861   92.727  -6.39   0.43  0000
   35  -0.801  2610 261480586  409.937  128.770  41.471   93.611  -6.52   0.30  0000
   36  -0.767  2569 261480587  410.150  128.891  41.484   93.701  -6.45   0.37  0000
   37  -0.734  2529 261480588  412.885  128.776  42.001   94.455  -6.44   0.38  0000
   38  -0.701  2151 261480589  413.026  128.551  42.074   94.442  -6.69   0.13  0000
   39  -0.667  2575 261480590  414.311  128.104  42.401   94.697  -6.25   0.57  0000
   40  -0.634  2626 261480591  416.133  128.730  42.607   95.350  -6.53   0.29  0000
   41  -0.601  2798 261480592  417.015  127.887  42.944   95.392  -6.83  -0.01  0000
   42  -0.567  3134 261480593  419.553  128.596  43.275   96.245  -6.87  -0.05  0000
   43  -0.534  2828 261480594  420.576  127.823  43.626   96.334  -6.85  -0.03  0000
   44  -0.501  3014 261480595  421.284  127.798  43.765   96.515  -6.99  -0.17  0000
   45  -0.467  3109 261480596  424.092  127.887  44.285   97.266  -7.09  -0.27  0000
   46  -0.434  2882 261480597  424.344  127.921  44.327   97.339  -6.95  -0.13  0000
   47  -0.400  2853 261480598  424.995  127.749  44.488   97.465  -6.77   0.05  0000
   48  -0.367  2955 261480599  427.348  127.763  44.944   98.063  -6.76   0.06  0000
   49  -0.334  2894 261480600  427.280  127.920  44.900   98.083  -6.99  -0.17  0000
   50  -0.300  3081 261480601  430.757  127.648  45.641   98.877  -7.16  -0.34  0000
   51  -0.267  3073 261480602  431.103  127.181  45.802   98.850  -7.22  -0.40  0000
   52  -0.234  3419 261480603  434.450  126.801  46.548   99.562  -7.18  -0.36  0000
   53  -0.200  2910 261480604  435.040  126.718  46.684   99.681  -7.28  -0.46  0000
   54  -0.167  3168 261480605  435.186  126.895  46.679   99.757  -7.05  -0.23  0000
   55  -0.133  2990 261480606  437.612  126.720  47.208  100.279  -7.14  -0.32  0000
   56  -0.100  3209 261480607  438.103  126.710  47.311  100.389  -7.30  -0.48  0000
   57  -0.067  3418 261480608  441.304  127.024  47.914  101.187  -7.17  -0.35  0000
   58  -0.033  3159 261480609  441.372  126.838  47.964  101.158  -7.33  -0.51  0000
   59   0.000  3454 261480610  441.566  126.843  48.003  101.203  -7.32  -0.50  0000
   60   0.033  3080 261480611  444.821  126.625  48.728  101.867  -7.48  -0.66  0000
   61   0.067  3180 261480612  445.173  126.775  48.774  101.978  -7.10  -0.28  0000
   62   0.100  3071 261480613  447.037  126.293  49.260  102.265  -6.96  -0.14  0000
   63   0.133  2843 261480614  447.955  126.960  49.333  102.615  -6.82   0.00  0000
   64   0.167  2885 261480615  448.246  126.966  49.394  102.678  -6.51   0.31  0000
   65   0.200  2724 261480616  451.005  126.799  50.019  103.214  -6.82  -0.00  0000
   66   0.234  2637 261480617  451.330  126.799  50.090  103.281  -6.30   0.52  0000
