#
#   version : 20090611
#    num_fr : 41
#      time : 20140127 12:41:47.005 UTC
#      unix : 1390826507.005764
#       ntp : LOCK 41 491107 268
#       seq : 397183506
#       mul : 0 [A]
#      site : 01
#    latlon : 45.5749 -94.3965 370.0
#      text : Collegeville
#     label : 
#     plate : metal_20100816_20100506-404-gd3
#      geom : 640 480
#    reject : 0
#
#  fr    time   sum     seq       cx       cy      th      phi    lsp    mag  flag
   30  -0.634  6388 397183487  218.242   96.990  48.049   21.023  -7.31  -0.49  0000
   31  -0.601  4359 397183488  217.915   96.782  48.148   20.967  -7.62  -0.80  0000
   32  -0.567  4504 397183489  216.683   95.824  48.565   20.783  -7.88  -1.06  0000
   33  -0.534  6372 397183490  214.796   95.016  49.050   20.400  -8.01  -1.19  0000
   34  -0.501  4764 397183491  212.078   94.012  49.716   19.832  -8.06  -1.24  0000
   35  -0.467  7192 397183492  210.303   93.029  50.230   19.524  -8.13  -1.31  0000
   36  -0.434  3705 397183493  209.939   92.589  50.392   19.501  -8.06  -1.24  0000
   37  -0.400  5003 397183494  207.380   91.820  50.988   18.960  -8.35  -1.53  0000
   38  -0.367  7751 397183495  205.453   90.907  51.517   18.616  -8.29  -1.47  0000
   39  -0.334  4157 397183496  204.936   90.556  51.685   18.542  -8.18  -1.36  0000
   40  -0.300  5044 397183497  203.602   89.663  52.114   18.352  -8.32  -1.50  0000
   41  -0.267  4350 397183498  201.323   88.966  52.658   17.898  -8.20  -1.38  0000
   42  -0.234  4385 397183499  198.997   88.506  53.160   17.401  -8.23  -1.41  0000
   43  -0.200  4859 397183500  198.627   87.674  53.415   17.448  -8.17  -1.35  0000
   44  -0.167  4808 397183501  196.253   86.811  54.023   17.016  -8.34  -1.52  0000
   45  -0.133  4995 397183502  195.491   87.201  54.066   16.770  -8.26  -1.44  0000
   46  -0.100  4974 397183503  193.785   85.717  54.704   16.609  -8.18  -1.36  0000
   47  -0.067  4894 397183504  191.428   84.870  55.315   16.196  -8.29  -1.47  0000
   48  -0.033  4869 397183505  190.839   84.050  55.606   16.193  -8.42  -1.60  0000
   49   0.000  9375 397183506  188.192   83.101  56.296   15.741  -8.38  -1.56  0000
   50   0.033  4566 397183507  187.283   83.241  56.429   15.512  -8.50  -1.68  0000
   51   0.067  4968 397183508  184.755   82.668  57.019   15.039  -8.48  -1.66  0000
   52   0.100  7560 397183509  183.283   81.159  57.631   14.958  -8.75  -1.93  0000
   53   0.133  5699 397183510  182.018   81.518  57.783   14.622  -8.60  -1.78  0000
   54   0.167  6191 397183511  179.725   80.623  58.413   14.270  -8.56  -1.74  0000
   55   0.200  8170 397183512  178.375   79.260  58.973   14.200  -8.78  -1.96  0000
   56   0.234  5398 397183513  177.270   78.266  59.405   14.124  -8.78  -1.96  0000
   57   0.267  5757 397183514  175.163   78.576  59.735   13.631  -8.86  -2.04  0000
   58   0.300  4506 397183515  174.634   77.421  60.095   13.704  -8.71  -1.89  0000
   59   0.334  5153 397183516  173.623   77.284  60.319   13.516  -8.67  -1.85  0000
   60   0.367  9163 397183517  171.253   76.836  60.876   13.100  -8.47  -1.65  0000
   61   0.400  5263 397183518  170.719   76.543  61.045   13.038  -8.68  -1.86  0000
   62   0.434  5883 397183519  168.842   75.720  61.594   12.788  -8.42  -1.60  0000
   63   0.467  6785 397183520  166.466   75.022  62.216   12.424  -8.32  -1.50  0000
   64   0.501  4749 397183521  165.997   74.697  62.381   12.382  -8.51  -1.69  0000
   65   0.534  5857 397183522  164.126   74.069  62.892   12.113  -8.15  -1.33  0000
   66   0.567  4942 397183523  163.770   73.841  63.014   12.079  -8.06  -1.24  0000
   67   0.601  6430 397183524  161.875   72.995  63.581   11.844  -7.49  -0.67  0000
   68   0.634  5087 397183525  160.754   73.539  63.686   11.542  -7.84  -1.02  0000
   69   0.667  5281 397183526  158.052   72.993  64.355   11.113  -7.16  -0.34  0000
   70   0.701  3330 397183527  156.896   71.924  64.827   11.063  -7.05  -0.23  0000
