#
#   version : 20090611
#    num_fr : 19
#      time : 20110315 08:28:02.243 UTC
#      unix : 1300177682.243528
#       ntp : LOCK -1441 1083291 534
#       seq : 159208121
#       mul : 0 [A]
#      site : 01
#    latlon : 45.5749 -94.3965 370.0
#      text : Collegeville
#     label : 
#     plate : metal_20100816_20100506-404-gd3
#      geom : 640 480
#    reject : 0
#
#  fr    time   sum     seq       cx       cy      th      phi    lsp    mag  flag
   29  -0.267  3295 159208113  385.550  192.957  24.638  107.014  -6.59  -6.59  0000
   30  -0.234  3675 159208114  385.084  191.854  24.714  106.307  -7.10  -7.10  0000
   31  -0.200  3702 159208115  385.842  190.858  25.038  106.120  -7.20  -7.20  0000
   32  -0.167  3717 159208116  384.216  189.338  24.944  104.785  -7.24  -7.24  0000
   33  -0.133  3762 159208117  384.421  188.918  25.057  104.670  -7.33  -7.33  0000
   34  -0.100  2652 159208118  385.033  187.802  25.372  104.395  -7.31  -7.31  0000
   35  -0.067  3109 159208119  385.129  186.279  25.650  103.746  -7.22  -7.22  0000
   36  -0.033  3438 159208120  384.986  185.673  25.725  103.421  -7.19  -7.19  0000
   37   0.000  4154 159208121  383.573  183.907  25.744  102.091  -7.08  -7.08  0000
   38   0.033  2924 159208122  384.389  183.206  26.033  102.112  -6.99  -6.99  0000
   39   0.067  3405 159208123  385.032  181.910  26.392  101.814  -6.84  -6.84  0000
   40   0.100  2663 159208124  385.347  180.166  26.767  101.210  -6.87  -6.87  0000
   41   0.133  3259 159208125  385.169  179.818  26.794  100.998  -7.16  -7.16  0000
   42   0.167  3753 159208126  384.359  177.291  27.097   99.659  -6.79  -6.79  0000
   43   0.200  3316 159208127  385.104  176.405  27.406   99.604  -6.82  -6.82  0000
   44   0.234  3370 159208128  386.003  175.259  27.793   99.509  -6.84  -6.84  0000
   45   0.267  3626 159208129  385.824  174.850  27.835   99.282  -6.73  -6.73  0000
   46   0.300  3119 159208130  385.128  173.760  27.905   98.595  -6.83  -6.83  0000
   48   0.367  2824 159208132  384.386  170.786  28.334   97.198  -6.28  -6.28  0000
