#
#   version : 20090611
#    num_fr : 39
#      time : 20101103 04:13:51.240 UTC
#      unix : 1288757631.240749
#       ntp : LOCK -1526 822870 429
#       seq : 8245071
#       mul : 0 [A]
#      site : 01
#    latlon : 45.5749 -94.3965 370.0
#      text : Collegeville
#     label : 
#     plate : metal_20100816_20100506-404-gd3
#      geom : 640 480
#    reject : 0
#
#  fr    time   sum     seq       cx       cy      th      phi    lsp    mag  flag
   30  -0.934  2121 8245043  196.229  155.214  40.153    1.861  -6.28  -6.28  0000
   31  -0.901  2221 8245044  195.887  154.950  40.274    1.855  -6.75  -6.75  0000
   32  -0.868  2802 8245045  195.770  154.347  40.403    2.001  -7.08  -7.08  0000
   33  -0.834  2768 8245046  194.458  152.650  40.983    2.170  -6.99  -6.99  0000
   34  -0.801  2920 8245047  194.023  152.847  41.045    2.009  -7.20  -7.20  0000
   35  -0.767  2954 8245048  193.738  152.182  41.222    2.129  -7.29  -7.29  0000
   36  -0.734  3072 8245049  192.785  150.883  41.656    2.266  -7.27  -7.27  0000
   37  -0.701  2959 8245050  192.327  150.558  41.813    2.248  -7.38  -7.38  0000
   38  -0.667  3176 8245051  191.621  149.664  42.123    2.329  -7.37  -7.37  0000
   39  -0.634  3069 8245052  191.662  148.779  42.267    2.583  -7.24  -7.24  0000
   40  -0.601  3176 8245053  190.504  147.857  42.683    2.561  -7.30  -7.30  0000
   41  -0.567  2965 8245054  190.245  147.498  42.802    2.598  -7.28  -7.28  0000
   42  -0.534  3201 8245055  189.777  147.089  42.977    2.599  -7.36  -7.36  0000
   43  -0.501  3146 8245056  188.558  145.982  43.438    2.614  -7.32  -7.32  0000
   44  -0.467  2893 8245057  188.222  145.140  43.660    2.760  -7.35  -7.35  0000
   45  -0.434  3270 8245058  188.037  144.200  43.865    2.966  -7.45  -7.45  0000
   46  -0.400  3153 8245059  187.670  143.604  44.051    3.038  -7.43  -7.43  0000
   47  -0.367  3613 8245060  186.447  142.766  44.468    2.976  -7.81  -7.81  0000
   48  -0.334  3683 8245061  186.099  141.925  44.693    3.115  -7.80  -7.80  0000
   49  -0.300  3940 8245062  185.125  141.106  45.052    3.104  -7.98  -7.98  0000
   50  -0.267  4383 8245063  184.630  140.487  45.271    3.150  -8.26  -8.26  0000
   51  -0.234  4190 8245064  184.559  139.584  45.447    3.363  -8.14  -8.14  0000
   52  -0.200  4326 8245065  183.282  138.985  45.834    3.229  -8.04  -8.04  0000
   53  -0.167  4765 8245066  182.905  138.501  46.003    3.266  -8.44  -8.44  0000
   54  -0.133  4742 8245067  182.334  137.145  46.371    3.476  -8.37  -8.37  0000
   55  -0.100  4825 8245068  181.869  136.739  46.546    3.474  -8.58  -8.58  0000
   56  -0.067  4765 8245069  181.264  135.489  46.904    3.647  -8.38  -8.38  0000
   57  -0.033  4761 8245070  181.011  134.954  47.056    3.721  -8.39  -8.39  0000
   58   0.000  4838 8245071  180.586  134.406  47.248    3.761  -8.45  -8.45  0000
   59   0.033  4220 8245072  179.660  133.427  47.628    3.795  -8.08  -8.08  0000
   60   0.067  3931 8245073  179.097  132.750  47.874    3.834  -8.03  -8.03  0000
   61   0.100  3842 8245074  178.335  132.079  48.163    3.829  -7.99  -7.99  0000
   62   0.133  3425 8245075  178.105  131.376  48.342    3.946  -7.55  -7.55  0000
   63   0.167  3014 8245076  177.818  131.083  48.458    3.953  -7.32  -7.32  0000
   64   0.200  2792 8245077  176.372  129.974  48.977    3.904  -7.03  -7.03  0000
   65   0.234  2497 8245078  176.295  129.549  49.072    3.986  -6.74  -6.74  0000
   66   0.267  2318 8245079  175.582  128.294  49.458    4.125  -6.64  -6.64  0000
   67   0.300  2291 8245080  174.983  127.873  49.667    4.095  -6.40  -6.40  0000
   68   0.334  1938 8245081  174.682  127.840  49.739    4.039  -5.84  -5.84  0000
