#
#   version : 20090611
#    num_fr : 43
#      time : 20120925 06:00:23.790 UTC
#      unix : 1348552823.790896
#       ntp : LOCK 346 489411 587
#       seq : 80750073
#       mul : 0 [A]
#      site : 01
#    latlon : 45.5749 -94.3965 370.0
#      text : Collegeville
#     label : 
#     plate : metal_20100816_20100506-404-gd3
#      geom : 640 480
#    reject : 0
#
#  fr    time   sum     seq       cx       cy      th      phi    lsp    mag  flag
   30  -1.235  2929 80750036  145.217   31.530  76.600   14.555  -6.39   0.43  0000
   33  -1.134  3744 80750039  145.421   29.306  77.107   14.861  -6.73   0.09  0000
   34  -1.101  3905 80750040  146.266   28.003  77.263   15.162  -6.60   0.22  0000
   35  -1.068  3887 80750041  146.283   27.774  77.316   15.193  -7.10  -0.28  0000
   36  -1.034  3853 80750042  147.207   26.994  77.328   15.445  -6.98  -0.16  0000
   37  -1.001  3667 80750043  147.274   26.760  77.373   15.484  -6.71   0.11  0000
   38  -0.968  3520 80750044  148.845   25.221  77.450   15.937  -6.91  -0.09  0000
   39  -0.934  4234 80750045  148.795   25.015  77.512   15.952  -7.27  -0.45  0000
   40  -0.901  3943 80750046  148.195   23.874  77.916   15.982  -7.38  -0.56  0000
   41  -0.868  4892 80750047  148.863   23.168  77.964   16.179  -7.67  -0.85  0000
   42  -0.834  3814 80750048  149.779   22.256  78.018   16.443  -7.61  -0.79  0000
   43  -0.801  4325 80750049  150.034   21.902  78.058   16.528  -7.63  -0.81  0000
   44  -0.767  4663 80750050  150.044   21.031  78.278   16.629  -7.79  -0.97  0000
   45  -0.734  5352 80750051  150.883   20.691  78.204   16.813  -7.97  -1.15  0000
   46  -0.701  4848 80750052  151.193   19.670  78.405   16.982  -8.06  -1.24  0000
   47  -0.667  5555 80750053  151.820   18.755  78.520   17.194  -8.16  -1.34  0000
   48  -0.634  5725 80750054  151.211   17.887  78.859   17.186  -8.32  -1.50  0000
   49  -0.601  4712 80750055  151.639   17.367  78.912   17.318  -8.30  -1.48  0000
   50  -0.567  4737 80750056  152.452   16.466  78.990   17.559  -8.37  -1.55  0000
   51  -0.534  5146 80750057  153.227   15.791  79.019   17.767  -8.38  -1.56  0000
   52  -0.501  5446 80750058  153.296   15.085  79.190   17.857  -8.45  -1.63  0000
   53  -0.467  6468 80750059  153.786   13.945  79.394   18.066  -8.59  -1.77  0000
   54  -0.434  5532 80750060  154.201   13.489  79.436   18.187  -8.67  -1.85  0000
   55  -0.400  6099 80750061  154.354   13.020  79.530   18.265  -8.70  -1.88  0000
   56  -0.367  6357 80750062  154.537   11.686  79.846   18.439  -8.91  -2.09  0000
   57  -0.334  6760 80750063  154.762   11.365  79.888   18.513  -8.81  -1.99  0000
   58  -0.300  7511 80750064  155.088   10.903  79.950   18.618  -8.98  -2.16  0000
   59  -0.267  8008 80750065  155.765   10.197  80.011   18.811  -9.05  -2.23  0000
   60  -0.234  8150 80750066  156.463    9.337  80.110   19.023  -8.99  -2.17  0000
   61  -0.200  7903 80750067  156.640    8.921  80.188   19.097  -9.05  -2.23  0000
   62  -0.167  8578 80750068  157.163    8.042  80.326   19.280  -9.26  -2.44  0000
   63  -0.133  8222 80750069  157.887    6.107  80.710   19.605  -9.02  -2.20  0000
   64  -0.100  7714 80750070  158.072    5.895  80.733   19.659  -9.03  -2.21  0000
   65  -0.067  8659 80750071  158.363    5.423  80.807   19.758  -9.14  -2.32  0000
   66  -0.033  8361 80750072  158.679    4.924  80.884   19.864  -9.28  -2.46  0000
   67   0.000  8890 80750073  159.432    4.110  80.968   20.077  -9.30  -2.48  0000
   68   0.033  8661 80750074  159.664    3.633  81.055   20.166  -9.23  -2.41  0000
   69   0.067  7270 80750075  159.928    3.054  81.164   20.270  -9.12  -2.30  0000
   70   0.100  6962 80750076  160.521    2.669  81.163   20.412  -9.15  -2.33  0000
   71   0.133  6766 80750077  160.772    2.588  81.141   20.464  -8.91  -2.09  0000
   72   0.167  3941 80750078  161.734    1.443  81.281   20.746  -8.65  -1.83  0000
   73   0.200  3629 80750079  161.639    1.411  81.307   20.732  -8.61  -1.79  0000
   74   0.234  3845 80750080  162.069    1.444  81.222   20.804  -8.35  -1.53  0000
