#
#   version : 20090611
#    num_fr : 40
#      time : 20131110 11:29:14.907 UTC
#      unix : 1384082954.907549
#       ntp : LOCK -590 219633 573
#       seq : 195084062
#       mul : 0 [A]
#      site : 01
#    latlon : 45.5749 -94.3965 370.0
#      text : Collegeville
#     label : 
#     plate : metal_20100816_20100506-404-gd3
#      geom : 640 480
#    reject : 0
#
#  fr    time   sum     seq       cx       cy      th      phi    lsp    mag  flag
   30  -0.901  1698 195084035  482.204  298.196  47.993  159.851  -6.13   0.69  0000
   33  -0.801  1592 195084038  481.028  296.130  47.520  159.310  -5.50   1.32  0000
   34  -0.767  1996 195084039  481.294  295.327  47.537  159.039  -6.30   0.52  0000
   35  -0.734  1898 195084040  482.192  295.167  47.773  158.919  -6.26   0.56  0000
   36  -0.701  1756 195084041  481.385  294.455  47.501  158.760  -6.10   0.72  0000
   37  -0.667  1908 195084042  481.117  293.934  47.392  158.619  -6.56   0.26  0000
   38  -0.634  1729 195084043  481.457  293.138  47.432  158.344  -6.33   0.49  0000
   39  -0.601  2113 195084044  481.199  292.966  47.349  158.310  -6.74   0.08  0000
   40  -0.567  2061 195084045  481.145  292.701  47.317  158.231  -6.69   0.13  0000
   41  -0.534  2489 195084046  480.557  291.357  47.067  157.852  -7.03  -0.21  0000
   42  -0.501  2738 195084047  480.649  290.754  47.054  157.655  -7.20  -0.38  0000
   43  -0.467  2493 195084048  481.134  290.517  47.173  157.546  -7.37  -0.55  0000
   44  -0.434  2929 195084049  481.082  290.042  47.129  157.400  -7.57  -0.75  0000
   45  -0.400  2717 195084050  481.293  289.845  47.175  157.323  -7.45  -0.63  0000
   46  -0.367  2741 195084051  480.989  288.512  47.010  156.923  -7.33  -0.51  0000
   47  -0.334  2859 195084052  480.623  287.760  46.863  156.709  -7.45  -0.63  0000
   48  -0.300  3087 195084053  480.629  287.873  46.872  156.745  -7.53  -0.71  0000
   49  -0.267  3200 195084054  479.768  286.747  46.567  156.443  -7.83  -1.01  0000
   50  -0.234  2834 195084055  479.863  285.845  46.542  156.148  -7.72  -0.90  0000
   51  -0.200  2887 195084056  479.542  285.595  46.439  156.088  -7.79  -0.97  0000
   52  -0.167  3137 195084057  479.858  284.977  46.493  155.870  -7.85  -1.03  0000
   53  -0.133  3362 195084058  479.024  283.624  46.188  155.485  -7.82  -1.00  0000
   54  -0.100  3169 195084059  479.070  283.263  46.181  155.366  -7.76  -0.94  0000
   55  -0.067  3617 195084060  478.544  282.666  46.004  155.203  -7.98  -1.16  0000
   56  -0.033  3254 195084061  478.836  281.604  46.031  154.841  -7.87  -1.05  0000
   57   0.000  3670 195084062  478.529  281.172  45.924  154.718  -8.07  -1.25  0000
   58   0.033  3552 195084063  479.020  280.428  46.025  154.447  -8.03  -1.21  0000
   59   0.067  3361 195084064  478.877  279.807  45.955  154.253  -7.88  -1.06  0000
   60   0.100  3158 195084065  478.672  279.626  45.890  154.205  -7.72  -0.90  0000
   61   0.133  3287 195084066  477.973  278.061  45.623  153.729  -7.76  -0.94  0000
   62   0.167  2924 195084067  478.162  277.457  45.649  153.520  -7.77  -0.95  0000
   63   0.200  2713 195084068  478.004  276.862  45.579  153.332  -7.58  -0.76  0000
   64   0.234  2628 195084069  477.368  275.911  45.361  153.049  -7.40  -0.58  0000
   65   0.267  2642 195084070  477.312  275.668  45.335  152.971  -7.19  -0.37  0000
   66   0.300  2540 195084071  476.532  274.503  45.070  152.619  -7.05  -0.23  0000
   67   0.334  2415 195084072  476.694  273.145  45.064  152.158  -6.94  -0.12  0000
   68   0.367  2066 195084073  476.497  273.015  45.004  152.123  -6.66   0.16  0000
   69   0.400  2159 195084074  476.993  272.236  45.114  151.842  -6.68   0.14  0000
   70   0.434  2008 195084075  474.946  271.721  44.523  151.753  -6.41   0.41  0000
   71   0.467  1937 195084076  475.470  270.878  44.640  151.447  -6.11   0.71  0000
