#
#   version : 20090611
#    num_fr : 19
#      time : 20140219 09:16:10.365 UTC
#      unix : 1392801370.365358
#       ntp : LOCK -95 904918 843
#       seq : 456368726
#       mul : 0 [A]
#      site : 01
#    latlon : 45.5749 -94.3965 370.0
#      text : Collegeville
#     label : 
#     plate : metal_20100816_20100506-404-gd3
#      geom : 640 480
#    reject : 0
#
#  fr    time   sum     seq       cx       cy      th      phi    lsp    mag  flag
   29  -0.267  3603 456368718  419.635  249.399  28.834  143.850  -6.67   0.15  0000
   30  -0.234  3283 456368719  419.685  249.105  28.848  143.698  -7.01  -0.19  0000
   31  -0.200  4269 456368720  418.405  247.288  28.508  142.736  -7.28  -0.46  0000
   32  -0.167  2935 456368721  417.590  246.324  28.294  142.213  -7.07  -0.25  0000
   33  -0.133  2848 456368722  418.389  245.321  28.521  141.705  -7.14  -0.32  0000
   34  -0.100  4028 456368723  418.854  244.075  28.664  141.066  -7.08  -0.26  0000
   35  -0.067  3128 456368724  418.978  243.516  28.706  140.780  -7.16  -0.34  0000
   36  -0.033  2955 456368725  418.134  241.510  28.513  139.700  -7.46  -0.64  0000
   37   0.000  4557 456368726  418.172  240.902  28.537  139.384  -7.51  -0.69  0000
   38   0.033  3201 456368727  418.141  239.023  28.575  138.403  -7.71  -0.89  0000
   39   0.067  3440 456368728  418.558  238.157  28.711  137.977  -7.29  -0.47  0000
   40   0.100  3278 456368729  418.832  237.730  28.798  137.772  -6.96  -0.14  0000
   41   0.133  3701 456368730  417.430  236.239  28.466  136.907  -7.27  -0.45  0000
   42   0.167  3555 456368731  418.067  233.280  28.747  135.423  -6.90  -0.08  0000
   43   0.200  2745 456368732  418.216  232.857  28.805  135.218  -6.90  -0.08  0000
   44   0.234  3717 456368733  416.324  231.481  28.356  134.338  -6.72   0.10  0000
   45   0.267  2725 456368734  417.127  230.014  28.640  133.658  -6.46   0.36  0000
   46   0.300  2889 456368735  417.191  229.867  28.664  133.589  -6.25   0.57  0000
   49   0.400  3782 456368738  416.292  224.960  28.692  130.982  -6.67   0.15  0000
