#
#   version : 20090611
#    num_fr : 41
#      time : 20140219 06:43:58.248 UTC
#      unix : 1392792238.248787
#       ntp : LOCK 1348 423406 998
#       seq : 456095043
#       mul : 0 [A]
#      site : 01
#    latlon : 45.5749 -94.3965 370.0
#      text : Collegeville
#     label : 
#     plate : metal_20100816_20100506-404-gd3
#      geom : 640 480
#    reject : 0
#
#  fr    time   sum     seq       cx       cy      th      phi    lsp    mag  flag
   29  -0.701  4200 456095022  156.965  265.792  42.404  -42.196  -5.92   0.90  0000
   30  -0.667  3431 456095023  157.061  265.813  42.377  -42.207  -7.00  -0.18  0000
   31  -0.634  2974 456095024  156.589  266.811  42.539  -42.543  -6.86  -0.04  0000
   32  -0.601  4473 456095025  154.266  266.328  43.183  -42.294  -7.03  -0.21  0000
   33  -0.567  5194 456095026  153.224  267.168  43.502  -42.549  -7.15  -0.33  0000
   34  -0.534  5016 456095027  152.459  267.944  43.743  -42.788  -7.13  -0.31  0000
   35  -0.500  5035 456095028  152.008  269.081  43.906  -43.160  -7.42  -0.60  0000
   36  -0.467  5181 456095029  150.967  269.081  44.201  -43.121  -7.58  -0.76  0000
   37  -0.434  6044 456095030  150.292  269.914  44.420  -43.377  -8.44  -1.62  0000
   38  -0.400  7539 456095031  148.814  270.828  44.871  -43.625  -8.63  -1.81  0000
   39  -0.367  7474 456095032  148.405  270.910  44.990  -43.636  -8.53  -1.71  0000
   40  -0.334  5721 456095033  147.543  271.715  45.263  -43.868  -8.57  -1.75  0000
   41  -0.300  6912 456095034  146.495  272.489  45.589  -44.080  -8.61  -1.79  0000
   42  -0.267  5313 456095035  146.292  272.643  45.652  -44.121  -8.63  -1.81  0000
   43  -0.234  8437 456095036  145.293  273.502  45.968  -44.359  -9.01  -2.19  0000
   44  -0.200  7165 456095037  143.996  273.205  46.327  -44.207  -8.93  -2.11  0000
   45  -0.167  6921 456095038  143.193  274.123  46.590  -44.469  -9.05  -2.23  0000
   46  -0.133  7206 456095039  142.080  274.715  46.931  -44.610  -8.94  -2.12  0000
   47  -0.100  6594 456095040  141.768  275.082  47.034  -44.713  -8.99  -2.17  0000
   48  -0.067  5532 456095041  140.927  275.709  47.299  -44.874  -8.87  -2.05  0000
   49  -0.033  6073 456095042  140.257  276.130  47.508  -44.977  -8.87  -2.05  0000
   50   0.000  8868 456095043  138.905  276.821  47.922  -45.132  -8.93  -2.11  0000
   51   0.033  6753 456095044  138.201  277.649  48.159  -45.357  -8.96  -2.14  0000
   52   0.067  6291 456095045  137.125  278.381  48.498  -45.533  -8.87  -2.05  0000
   53   0.100  5580 456095046  136.543  278.537  48.672  -45.553  -8.66  -1.84  0000
   54   0.133  5726 456095047  136.339  278.795  48.741  -45.623  -8.80  -1.98  0000
   55   0.167  5569 456095048  135.296  279.776  49.084  -45.872  -8.71  -1.89  0000
   56   0.200  6052 456095049  134.962  280.011  49.190  -45.927  -8.67  -1.85  0000
   57   0.234  7011 456095050  133.974  280.677  49.504  -46.080  -8.87  -2.05  0000
   58   0.267  7265 456095051  131.889  281.130  50.123  -46.113  -8.72  -1.90  0000
   59   0.300  5477 456095052  131.544  282.362  50.281  -46.463  -8.66  -1.84  0000
   60   0.334  5952 456095053  130.531  282.127  50.560  -46.342  -8.38  -1.56  0000
   61   0.367  5161 456095054  131.480  282.686  50.315  -46.556  -8.46  -1.64  0000
   62   0.400  7358 456095055  128.776  283.298  51.121  -46.598  -8.62  -1.80  0000
   63   0.434  7863 456095056  127.921  284.154  51.410  -46.804  -9.14  -2.32  0000
   64   0.467  5812 456095057  126.805  284.940  51.771  -46.974  -8.59  -1.77  0000
   65   0.500  7199 456095058  126.493  285.253  51.877  -47.048  -8.68  -1.86  0000
   66   0.534  5219 456095059  125.386  285.906  52.230  -47.177  -8.34  -1.52  0000
   67   0.567  3461 456095060  125.839  286.038  52.106  -47.239  -7.88  -1.06  0000
   68   0.601  5168 456095061  124.854  286.931  52.438  -47.441  -7.52  -0.70  0000
   69   0.634  2899 456095062  124.028  287.330  52.697  -47.510  -6.81   0.01  0000
