#
#   version : 20090611
#    num_fr : 46
#      time : 20131108 03:38:16.094 UTC
#      unix : 1383881896.094822
#       ntp : LOCK 1382 119487 2649
#       seq : 189058471
#       mul : 0 [A]
#      site : 01
#    latlon : 45.5749 -94.3965 370.0
#      text : Collegeville
#     label : 
#     plate : metal_20100816_20100506-404-gd3
#      geom : 640 480
#    reject : 0
#
#  fr    time   sum     seq       cx       cy      th      phi    lsp    mag  flag
   29  -1.134  2326 189058437  175.217   90.821  57.033   11.591  -6.10   0.72  0000
   30  -1.101  2068 189058438  175.396   90.982  56.963   11.600  -6.02   0.80  0000
   31  -1.068  2590 189058439  176.904   90.264  56.823   12.047  -6.38   0.44  0000
   32  -1.034  2493 189058440  176.867   89.592  56.976   12.156  -6.55   0.27  0000
   33  -1.001  2760 189058441  177.064   89.642  56.926   12.189  -6.96  -0.14  0000
   34  -0.968  2697 189058442  177.899   88.678  56.974   12.535  -6.98  -0.16  0000
   35  -0.934  3220 189058443  178.538   87.759  57.052   12.829  -7.36  -0.54  0000
   36  -0.901  2956 189058444  178.639   87.544  57.080   12.888  -7.22  -0.40  0000
   37  -0.868  3231 189058445  179.330   86.717  57.130   13.177  -7.41  -0.59  0000
   38  -0.834  3474 189058446  177.708   85.970  57.605   12.954  -7.67  -0.85  0000
   39  -0.801  3568 189058447  178.903   85.108  57.567   13.356  -7.72  -0.90  0000
   40  -0.767  3680 189058448  179.000   84.858  57.604   13.418  -7.71  -0.89  0000
   41  -0.734  3949 189058449  180.710   84.095  57.450   13.915  -7.97  -1.15  0000
   42  -0.701  3963 189058450  181.039   83.618  57.494   14.066  -8.06  -1.24  0000
   43  -0.667  4424 189058451  180.701   82.868  57.726   14.116  -8.27  -1.45  0000
   44  -0.634  4240 189058452  181.447   82.450  57.680   14.346  -8.25  -1.43  0000
   45  -0.601  4538 189058453  181.741   81.481  57.843   14.568  -8.31  -1.49  0000
   46  -0.567  4544 189058454  182.480   80.831  57.853   14.835  -8.35  -1.53  0000
   47  -0.534  4455 189058455  181.788   79.798  58.215   14.849  -8.33  -1.51  0000
   48  -0.500  4925 189058456  182.148   79.060  58.316   15.045  -8.38  -1.56  0000
   49  -0.467  5493 189058457  183.619   78.761  58.115   15.414  -8.79  -1.97  0000
   50  -0.434  5485 189058458  183.891   77.827  58.279   15.621  -8.67  -1.85  0000
   51  -0.400  4735 189058459  184.081   77.372  58.349   15.734  -8.50  -1.68  0000
   52  -0.367  5084 189058460  184.337   76.755  58.444   15.887  -8.68  -1.86  0000
   53  -0.334  6076 189058461  184.498   75.245  58.763   16.156  -8.90  -2.08  0000
   54  -0.300  6100 189058462  184.997   74.322  58.888   16.407  -8.91  -2.09  0000
   55  -0.267  5894 189058463  185.364   73.843  58.933   16.560  -8.93  -2.11  0000
   56  -0.234  6231 189058464  185.935   73.085  59.008   16.801  -8.84  -2.02  0000
   57  -0.200  6629 189058465  186.922   72.206  59.040   17.151  -8.99  -2.17  0000
   58  -0.167  6573 189058466  187.258   71.629  59.116   17.311  -8.97  -2.15  0000
   59  -0.133  5912 189058467  187.516   71.028  59.212   17.457  -8.81  -1.99  0000
   60  -0.100  5991 189058468  188.293   70.142  59.286   17.760  -8.90  -2.08  0000
   61  -0.067  7741 189058469  188.460   68.213  59.714   18.077  -9.29  -2.47  0000
   62  -0.033  7589 189058470  188.727   67.975  59.725   18.171  -9.33  -2.51  0000
   63   0.000  7885 189058471  189.439   67.349  59.752   18.418  -9.31  -2.49  0000
   64   0.033  5781 189058472  190.600   66.545  59.747   18.792  -8.75  -1.93  0000
   65   0.067  4987 189058473  190.977   66.117  59.786   18.936  -8.59  -1.77  0000
   66   0.100  4205 189058474  191.251   65.630  59.857   19.066  -8.02  -1.20  0000
   67   0.133  3690 189058475  192.031   64.611  59.972   19.383  -7.70  -0.88  0000
   68   0.167  4401 189058476  192.850   63.291  60.156   19.748  -8.31  -1.49  0000
   69   0.200  3639 189058477  193.118   62.736  60.247   19.884  -7.64  -0.82  0000
   70   0.234  3152 189058478  193.959   62.076  60.269   20.163  -7.22  -0.40  0000
   71   0.267  3006 189058479  193.914   61.793  60.346   20.191  -7.13  -0.31  0000
   72   0.300  2459 189058480  194.742   60.461  60.537   20.556  -6.50   0.32  0000
   73   0.334  2801 189058481  194.953   59.299  60.789   20.757  -6.97  -0.15  0000
   74   0.367  2431 189058482  195.205   59.032  60.814   20.849  -6.40   0.42  0000
