#
#   version : 20090611
#    num_fr : 58
#      time : 20130104 08:30:43.777 UTC
#      unix : 1357288243.777960
#       ntp : LOCK -392 1050921 498
#       seq : 56374314
#       mul : 0 [A]
#      site : 01
#    latlon : 45.5749 -94.3965 370.0
#      text : Collegeville
#     label : 
#     plate : metal_20100816_20100506-404-gd3
#      geom : 640 480
#    reject : 0
#
#  fr    time   sum     seq       cx       cy      th      phi    lsp    mag  flag
   30  -1.201  3075 56374278  145.979  406.470  62.748  -78.689  -6.40   0.42  0000
   32  -1.134  2951 56374280  144.970  407.363  63.154  -78.679  -7.24  -0.42  0000
   33  -1.101  3795 56374281  144.278  408.208  63.479  -78.713  -7.77  -0.95  0000
   34  -1.068  4220 56374282  144.050  408.302  63.550  -78.691  -8.03  -1.21  0000
   35  -1.034  4539 56374283  143.912  408.726  63.666  -78.743  -8.21  -1.39  0000
   36  -1.001  5184 56374284  142.267  408.946  64.083  -78.508  -8.39  -1.57  0000
   37  -0.968  5013 56374285  142.061  409.190  64.178  -78.517  -8.50  -1.68  0000
   38  -0.934  5240 56374286  140.782  409.746  64.581  -78.405  -8.49  -1.67  0000
   40  -0.868  5415 56374288  140.255  410.266  64.805  -78.409  -8.64  -1.82  0000
   41  -0.834  5488 56374289  139.983  410.272  64.868  -78.366  -8.51  -1.69  0000
   42  -0.801  5601 56374290  139.140  411.083  65.224  -78.370  -8.58  -1.76  0000
   43  -0.767  5688 56374291  138.854  411.224  65.318  -78.348  -8.69  -1.87  0000
   44  -0.734  5919 56374292  137.204  411.441  65.740  -78.120  -8.65  -1.83  0000
   45  -0.701  5434 56374293  136.856  411.523  65.837  -78.079  -8.47  -1.65  0000
   46  -0.667  5399 56374294  136.090  412.201  66.149  -78.074  -8.51  -1.69  0000
   47  -0.634  5208 56374295  135.441  412.355  66.330  -77.997  -8.40  -1.58  0000
   48  -0.601  4810 56374296  135.158  412.565  66.438  -77.988  -8.30  -1.48  0000
   49  -0.567  4306 56374297  135.041  413.168  66.586  -78.073  -8.31  -1.49  0000
   50  -0.534  4815 56374298  134.082  413.749  66.924  -78.022  -8.24  -1.42  0000
   51  -0.501  4014 56374299  133.733  413.881  67.032  -77.989  -8.11  -1.29  0000
   52  -0.467  4484 56374300  133.523  414.051  67.115  -77.985  -7.92  -1.10  0000
   53  -0.434  5063 56374301  131.699  414.818  67.693  -77.831  -8.30  -1.48  0000
   54  -0.400  5645 56374302  130.929  414.570  67.824  -77.670  -8.57  -1.75  0000
   55  -0.367  5653 56374303  130.501  414.784  67.967  -77.640  -8.68  -1.86  0000
   56  -0.334  6689 56374304  130.118  415.199  68.140  -77.652  -9.05  -2.23  0000
   57  -0.300  6895 56374305  129.349  415.625  68.406  -77.606  -9.02  -2.20  0000
   58  -0.267  6794 56374306  128.806  416.052  68.619  -77.595  -9.14  -2.32  0000
   59  -0.234  6902 56374307  128.101  416.693  68.914  -77.595  -9.15  -2.33  0000
   60  -0.200  5687 56374308  127.742  416.638  68.987  -77.531  -8.50  -1.68  0000
   61  -0.167  5538 56374309  126.546  417.215  69.386  -77.447  -8.40  -1.58  0000
   62  -0.133  5633 56374310  126.437  417.442  69.457  -77.469  -8.67  -1.85  0000
   63  -0.100  4446 56374311  126.090  417.949  69.641  -77.501  -7.93  -1.11  0000
   64  -0.067  7089 56374312  124.545  418.953  70.210  -77.436  -9.05  -2.23  0000
   66   0.000  9202 56374314  123.255  418.844  70.495  -77.227  -9.42  -2.60  0000
   67   0.033  8408 56374315  123.037  418.936  70.566  -77.211  -9.29  -2.47  0000
   69   0.100  6233 56374317  121.839  419.866  71.039  -77.187  -9.13  -2.31  0000
   70   0.133  7420 56374318  120.883  420.294  71.355  -77.118  -9.09  -2.27  0000
   71   0.167  6836 56374319  120.439  420.351  71.473  -77.062  -8.85  -2.03  0000
   72   0.200  6044 56374320  120.363  420.533  71.528  -77.081  -8.78  -1.96  0000
   73   0.234  6668 56374321  119.953  420.757  71.672  -77.058  -8.80  -1.98  0000
   74   0.267  7637 56374322  119.008  421.363  72.022  -77.020  -9.04  -2.22  0000
   75   0.300  6772 56374323  118.572  421.210  72.096  -76.933  -8.73  -1.91  0000
   76   0.334  6604 56374324  117.858  421.934  72.415  -76.948  -8.78  -1.96  0000
   77   0.367  4759 56374325  117.327  422.013  72.559  -76.885  -8.57  -1.75  0000
   78   0.400  5341 56374326  117.147  422.250  72.651  -76.897  -8.54  -1.72  0000
   79   0.434  5269 56374327  116.515  422.659  72.886  -76.873  -8.49  -1.67  0000
   81   0.501  5070 56374329  116.067  423.034  73.071  -76.870  -8.27  -1.45  0000
   82   0.534  5181 56374330  115.794  422.889  73.108  -76.808  -8.35  -1.53  0000
   83   0.567  5469 56374331  114.460  422.617  73.379  -76.576  -8.28  -1.46  0000
   84   0.601  5555 56374332  113.711  423.293  73.698  -76.580  -8.28  -1.46  0000
   85   0.634  5109 56374333  113.309  423.549  73.849  -76.565  -8.14  -1.32  0000
   86   0.667  5236 56374334  112.573  423.901  74.100  -76.519  -8.20  -1.38  0000
   87   0.701  4996 56374335  112.362  424.044  74.181  -76.512  -8.07  -1.25  0000
   88   0.734  3786 56374336  111.982  424.299  74.326  -76.500  -7.71  -0.89  0000
   89   0.767  3530 56374337  111.802  424.506  74.412  -76.508  -7.28  -0.46  0000
   90   0.801  3256 56374338  111.887  424.848  74.460  -76.574  -6.04   0.78  0000
   91   0.834  4251 56374339  111.059  425.093  74.713  -76.499  -7.69  -0.87  0000
   92   0.868  3832 56374340  111.599  424.322  74.424  -76.451  -7.42  -0.60  0000
