#
#   version : 20090611
#    num_fr : 61
#      time : 20110208 04:27:24.987 UTC
#      unix : 1297139244.987397
#       ntp : DRIFT 0 16000000 516
#       seq : 68146259
#       mul : 0 [A]
#      site : 01
#    latlon : 45.5749 -94.3965 370.0
#      text : Collegeville
#     label : 
#     plate : metal_20100816_20100506-404-gd3
#      geom : 640 480
#    reject : 0
#
#  fr    time   sum     seq       cx       cy      th      phi    lsp    mag  flag
   29  -0.634  1620 68146240  231.409  163.364  31.387    9.765  -6.18  -6.18  0000
   30  -0.601  1836 68146241  231.175  161.834  31.729   10.178  -6.44  -6.44  0000
   31  -0.567  1959 68146242  230.851  161.349  31.885   10.218  -6.66  -6.66  0000
   32  -0.534  2175 68146243  230.137  159.987  32.288   10.397  -6.93  -6.93  0000
   33  -0.501  2213 68146244  229.928  159.586  32.406   10.449  -6.88  -6.88  0000
   34  -0.467  2269 68146245  229.061  157.789  32.924   10.702  -7.04  -7.04  0000
   35  -0.434  2437 68146246  228.394  157.537  33.099   10.548  -7.21  -7.21  0000
   36  -0.400  2367 68146247  228.346  156.140  33.385   10.956  -7.27  -7.27  0000
   37  -0.367  2484 68146248  228.000  155.182  33.640   11.124  -7.26  -7.26  0000
   38  -0.334  2463 68146249  226.797  153.759  34.149   11.135  -7.31  -7.31  0000
   39  -0.300  2562 68146250  226.973  152.881  34.292   11.450  -7.24  -7.24  0000
   40  -0.267  2816 68146251  226.177  151.653  34.686   11.536  -7.48  -7.48  0000
   41  -0.234  2956 68146252  225.869  150.745  34.927   11.692  -7.52  -7.52  0000
   42  -0.200  2904 68146253  225.240  149.847  35.225   11.736  -7.47  -7.47  0000
   43  -0.167  3037 68146254  225.298  148.909  35.403   12.018  -7.58  -7.58  0000
   44  -0.133  2802 68146255  224.097  147.461  35.919   12.023  -7.52  -7.52  0000
   45  -0.100  2992 68146256  223.936  146.999  36.043   12.096  -7.48  -7.48  0000
   46  -0.067  3048 68146257  222.917  145.460  36.544   12.182  -7.50  -7.50  0000
   47  -0.033  3015 68146258  222.063  144.444  36.909   12.180  -7.54  -7.54  0000
   48   0.000  3271 68146259  222.165  143.366  37.111   12.498  -7.69  -7.69  0000
   49   0.033  2898 68146260  222.018  142.454  37.325   12.690  -7.40  -7.40  0000
   50   0.067  3060 68146261  220.987  141.289  37.754   12.665  -7.56  -7.56  0000
   51   0.100  2967 68146262  220.911  140.057  38.022   12.956  -7.45  -7.45  0000
   52   0.133  3100 68146263  220.073  139.103  38.372   12.935  -7.60  -7.60  0000
   53   0.167  3137 68146264  219.252  137.593  38.835   13.059  -7.62  -7.62  0000
   54   0.200  3045 68146265  219.182  137.026  38.966   13.178  -7.65  -7.65  0000
   55   0.234  3085 68146266  218.160  135.596  39.449   13.215  -7.60  -7.60  0000
   56   0.267  3161 68146267  217.832  135.151  39.602   13.224  -7.49  -7.49  0000
   57   0.300  2981 68146268  218.047  133.613  39.885   13.660  -7.48  -7.48  0000
   58   0.334  3073 68146269  216.863  132.692  40.292   13.522  -7.43  -7.43  0000
   59   0.367  3042 68146270  216.410  131.255  40.676   13.725  -7.56  -7.56  0000
   60   0.400  3038 68146271  215.697  130.658  40.931   13.652  -7.55  -7.55  0000
   61   0.434  2826 68146272  215.208  129.180  41.331   13.850  -7.44  -7.44  0000
   62   0.467  2981 68146273  215.222  128.341  41.506   14.046  -7.53  -7.53  0000
   63   0.501  3003 68146274  214.863  127.399  41.771   14.154  -7.61  -7.61  0000
   64   0.534  2805 68146275  214.588  126.122  42.092   14.360  -7.37  -7.37  0000
   65   0.567  2859 68146276  212.974  125.102  42.599   14.120  -7.42  -7.42  0000
   66   0.601  2925 68146277  213.259  123.897  42.805   14.467  -7.42  -7.42  0000
   67   0.634  2957 68146278  212.862  123.441  42.974   14.453  -7.38  -7.38  0000
   68   0.667  2958 68146279  211.706  121.908  43.509   14.457  -7.50  -7.50  0000
   69   0.701  2673 68146280  211.455  121.363  43.671   14.503  -7.45  -7.45  0000
   70   0.734  2921 68146281  211.397  119.883  44.000   14.801  -7.39  -7.39  0000
   71   0.767  2869 68146282  211.218  119.432  44.129   14.846  -7.23  -7.23  0000
   72   0.801  2419 68146283  210.176  117.763  44.675   14.904  -7.23  -7.23  0000
   73   0.834  2345 68146284  210.283  117.453  44.724   14.999  -7.01  -7.01  0000
   74   0.868  2506 68146285  208.642  115.958  45.339   14.854  -7.11  -7.11  0000
   75   0.901  2567 68146286  208.937  115.014  45.492   15.127  -7.13  -7.13  0000
   76   0.934  2400 68146287  208.157  113.948  45.863   15.130  -6.96  -6.96  0000
   77   0.968  2356 68146288  208.801  112.876  45.984   15.520  -7.06  -7.06  0000
   78   1.001  2335 68146289  206.846  112.005  46.519   15.165  -6.83  -6.83  0000
   79   1.034  2268 68146290  206.752  111.794  46.582   15.181  -6.81  -6.81  0000
   80   1.068  2135 68146291  207.916  110.330  46.699   15.782  -6.55  -6.55  0000
   81   1.101  2128 68146292  206.252  109.037  47.276   15.587  -6.67  -6.67  0000
   82   1.134  2010 68146293  206.015  108.873  47.354   15.556  -6.29  -6.29  0000
   83   1.168  1978 68146294  205.413  107.738  47.710   15.615  -6.34  -6.34  0000
   84   1.201  1981 68146295  205.806  106.994  47.806   15.860  -6.36  -6.36  0000
   85   1.235  2173 68146296  204.276  105.499  48.405   15.742  -6.51  -6.51  0000
   86   1.268  1989 68146297  204.172  104.957  48.544   15.816  -6.04  -6.04  0000
   87   1.301  1844 68146298  205.032  104.169  48.569   16.188  -5.64  -5.64  0000
   88   1.335  1831 68146299  204.940  103.997  48.623   16.196  -6.06  -6.06  0000
   92   1.468  1650 68146303  202.985   99.548  49.960   16.501  -5.60  -5.60  0000
