#
#   version : 20090611
#    num_fr : 30
#      time : 20140410 01:56:02.901 UTC
#      unix : 1397094962.901049
#       ntp : LOCK 1162 827291 1033
#       seq : 42758880
#       mul : 0 [A]
#      site : 01
#    latlon : 45.5749 -94.3965 370.0
#      text : Collegeville
#     label : 
#     plate : metal_20100816_20100506-404-gd3
#      geom : 640 480
#    reject : 0
#
#  fr    time   sum     seq       cx       cy      th      phi    lsp    mag  flag
   30  -0.367  3116 42758869  274.366   34.682  58.729   43.011  -7.38  -0.56  0000
   31  -0.334  6771 42758870  287.917   46.750  54.702   46.345  -8.36  -1.54  0000
   32  -0.300  5314 42758871  291.490   50.388  53.554   47.286  -8.11  -1.29  0000
   33  -0.267  4702 42758872  304.197   62.043  49.995   50.956  -8.56  -1.74  0000
   34  -0.234  6440 42758873  317.753   76.692  45.888   55.452  -8.89  -2.07  0000
   35  -0.200  5587 42758874  327.684   88.927  42.704   59.289  -9.27  -2.45  0000
   36  -0.167  6079 42758875  332.621   94.668  41.303   61.379  -9.11  -2.29  0000
   37  -0.133  5261 42758876  339.443  106.116  38.535   64.763  -8.81  -1.99  0000
   38  -0.100  6827 42758877  347.440  116.359  36.336   68.978  -8.95  -2.13  0000
   39  -0.067  3688 42758878  352.572  124.956  34.527   72.220  -9.04  -2.22  0000
   40  -0.033  6062 42758879  359.679  136.081  32.431   77.112  -9.30  -2.48  0000
   41   0.000  6941 42758880  367.231  146.464  30.842   82.624  -9.13  -2.31  0000
   42   0.033  6294 42758881  372.505  154.709  29.697   87.056  -9.12  -2.30  0000
   43   0.067  5615 42758882  377.820  164.584  28.412   92.347  -8.96  -2.14  0000
   44   0.100  5044 42758883  384.844  174.514  27.709   98.770  -9.07  -2.25  0000
   45   0.133  6372 42758884  390.727  182.555  27.447  104.220  -9.07  -2.25  0000
   46   0.167  4891 42758885  399.621  194.176  27.608  112.271  -8.93  -2.11  0000
   47   0.200  5252 42758886  401.053  198.416  27.371  114.669  -8.87  -2.05  0000
   48   0.234  4843 42758887  407.274  204.712  28.117  119.271  -8.78  -1.96  0000
   49   0.267  4395 42758888  414.437  214.080  29.004  125.276  -8.76  -1.94  0000
   50   0.300  5043 42758889  417.466  218.388  29.446  127.867  -8.49  -1.67  0000
   51   0.334  4955 42758890  424.252  226.277  30.739  132.529  -8.16  -1.34  0000
   52   0.367  3237 42758891  427.504  232.121  31.341  135.598  -8.11  -1.29  0000
   53   0.400  4799 42758892  430.181  237.113  31.898  138.119  -8.33  -1.51  0000
   54   0.434  3974 42758893  432.888  242.806  32.513  140.875  -8.19  -1.37  0000
   55   0.467  4787 42758894  434.499  247.878  32.903  143.234  -7.82  -1.00  0000
   56   0.501  4926 42758895  437.031  252.671  33.601  145.404  -8.09  -1.27  0000
   57   0.534  4541 42758896  439.831  260.682  34.479  148.882  -7.90  -1.08  0000
   58   0.567  3444 42758897  440.030  266.506  34.693  151.393  -7.55  -0.73  0000
   59   0.601  4323 42758898  441.079  270.380  35.123  152.987  -7.83  -1.01  0000
