#
#   version : 20090611
#    num_fr : 65
#      time : 20130217 11:41:17.744 UTC
#      unix : 1361101277.744057
#       ntp : LOCK -57 402535 241
#       seq : 58342218
#       mul : 0 [A]
#      site : 01
#    latlon : 45.5749 -94.3965 370.0
#      text : Collegeville
#     label : 
#     plate : metal_20100816_20100506-404-gd3
#      geom : 640 480
#    reject : 0
#
#  fr    time   sum     seq       cx       cy      th      phi    lsp    mag  flag
   30  -0.801  2906 58342194  477.136  206.208  46.289  129.769  -6.52   0.30  0000
   31  -0.767  2846 58342195  477.169  204.049  46.451  129.087  -6.16   0.66  0000
   32  -0.734  3007 58342196  477.036  203.611  46.446  128.936  -6.46   0.36  0000
   33  -0.701  2924 58342197  475.964  201.934  46.279  128.306  -6.37   0.45  0000
   34  -0.667  3148 58342198  476.393  201.280  46.445  128.140  -6.85  -0.03  0000
   35  -0.634  3508 58342199  475.408  199.125  46.346  127.365  -7.04  -0.22  0000
   36  -0.601  2980 58342200  475.144  198.846  46.297  127.251  -6.11   0.71  0000
   37  -0.567  3102 58342201  475.059  197.029  46.423  126.672  -6.51   0.31  0000
   38  -0.534  3315 58342202  475.701  195.929  46.689  126.396  -6.80   0.02  0000
   39  -0.501  3375 58342203  475.532  195.455  46.683  126.231  -7.02  -0.20  0000
   40  -0.467  3289 58342204  474.902  193.192  46.711  125.462  -7.08  -0.26  0000
   41  -0.434  3918 58342205  474.066  192.172  46.578  125.054  -7.46  -0.64  0000
   42  -0.400  3931 58342206  473.946  191.396  46.617  124.801  -7.41  -0.59  0000
   43  -0.367  3620 58342207  472.577  189.868  46.394  124.172  -7.34  -0.52  0000
   44  -0.334  3269 58342208  473.406  188.085  46.785  123.722  -7.50  -0.68  0000
   45  -0.300  4189 58342209  471.921  187.125  46.486  123.250  -7.63  -0.81  0000
   46  -0.267  4192 58342210  471.383  185.272  46.529  122.617  -7.62  -0.80  0000
   47  -0.234  4249 58342211  472.139  183.994  46.859  122.324  -7.76  -0.94  0000
   48  -0.200  4626 58342212  471.674  183.332  46.805  122.066  -8.01  -1.19  0000
   49  -0.167  4700 58342213  470.825  181.613  46.764  121.438  -8.20  -1.38  0000
   50  -0.133  4597 58342214  470.559  180.132  46.854  120.958  -8.32  -1.50  0000
   51  -0.100  5213 58342215  470.722  179.243  46.994  120.715  -8.26  -1.44  0000
   52  -0.067  5183 58342216  469.609  177.054  46.950  119.912  -8.36  -1.54  0000
   53  -0.033  5586 58342217  468.943  175.301  46.980  119.301  -8.39  -1.57  0000
   54   0.000  5670 58342218  468.625  174.740  46.964  119.091  -8.41  -1.59  0000
   55   0.033  4689 58342219  467.846  173.494  46.911  118.612  -8.35  -1.53  0000
   56   0.067  4702 58342220  467.320  171.371  47.033  117.914  -8.21  -1.39  0000
   57   0.100  5160 58342221  467.430  170.002  47.230  117.533  -8.34  -1.52  0000
   58   0.133  5297 58342222  467.217  168.245  47.396  116.995  -8.45  -1.63  0000
   59   0.167  4973 58342223  466.816  167.562  47.381  116.738  -8.26  -1.44  0000
   60   0.200  4921 58342224  465.806  165.899  47.341  116.107  -8.27  -1.45  0000
   61   0.234  5641 58342225  465.559  163.626  47.579  115.424  -8.39  -1.57  0000
   62   0.267  5379 58342226  464.691  162.708  47.486  115.026  -8.46  -1.64  0000
   63   0.300  5117 58342227  464.479  161.131  47.647  114.550  -8.31  -1.49  0000
   64   0.334  5173 58342228  463.592  159.100  47.710  113.839  -8.29  -1.47  0000
   65   0.367  4989 58342229  463.936  157.881  47.965  113.560  -8.16  -1.34  0000
   66   0.400  4812 58342230  462.151  156.630  47.707  112.915  -8.09  -1.27  0000
   67   0.434  4738 58342231  461.542  155.018  47.793  112.369  -8.04  -1.22  0000
   68   0.467  4764 58342232  461.958  153.550  48.108  112.044  -8.07  -1.25  0000
   69   0.501  4158 58342233  461.235  151.592  48.226  111.391  -8.13  -1.31  0000
   70   0.534  4792 58342234  460.747  149.991  48.351  110.879  -8.21  -1.39  0000
   71   0.567  5325 58342235  458.958  148.785  48.111  110.236  -8.22  -1.40  0000
   72   0.601  3620 58342236  459.399  147.522  48.411  109.985  -8.18  -1.36  0000
   73   0.634  5357 58342237  458.544  145.134  48.586  109.205  -8.28  -1.46  0000
   74   0.667  5057 58342238  457.673  143.921  48.577  108.729  -8.36  -1.54  0000
   75   0.701  5501 58342239  457.279  143.266  48.591  108.487  -8.20  -1.38  0000
   76   0.734  4637 58342240  456.594  141.044  48.795  107.790  -7.93  -1.11  0000
   77   0.767  4246 58342241  455.396  139.216  48.824  107.099  -7.33  -0.51  0000
   78   0.801  3943 58342242  455.087  137.368  49.065  106.577  -7.45  -0.63  0000
   79   0.834  3068 58342243  455.486  135.829  49.417  106.275  -7.38  -0.56  0000
   80   0.868  4300 58342244  453.504  134.527  49.195  105.565  -8.14  -1.32  0000
   81   0.901  5303 58342245  453.695  133.183  49.471  105.276  -8.34  -1.52  0000
   82   0.934  4104 58342246  451.900  130.750  49.503  104.329  -7.83  -1.01  0000
   83   0.968  4694 58342247  452.151  129.797  49.728  104.153  -7.84  -1.02  0000
   84   1.001  4586 58342248  450.445  128.058  49.669  103.393  -7.60  -0.78  0000
   85   1.034  4799 58342249  450.148  125.935  49.992  102.836  -7.67  -0.85  0000
   86   1.068  3419 58342250  450.514  125.230  50.201  102.749  -7.52  -0.70  0000
   87   1.101  4215 58342251  449.091  123.729  50.174  102.108  -7.57  -0.75  0000
   88   1.134  4327 58342252  448.162  121.091  50.473  101.315  -7.58  -0.76  0000
   89   1.168  4371 58342253  447.342  119.708  50.564  100.832  -7.51  -0.69  0000
   90   1.201  3531 58342254  447.077  119.381  50.571  100.703  -7.12  -0.30  0000
   91   1.235  2689 58342255  446.240  116.832  50.890   99.962  -6.93  -0.11  0000
   92   1.268  3075 58342256  444.144  115.624  50.696   99.245  -6.69   0.13  0000
   94   1.335  3742 58342258  441.610  112.796  50.748   98.080  -6.74   0.08  0000
   95   1.368  3832 58342259  442.989  110.871  51.410   97.982  -6.52   0.30  0000
