#
#   version : 20090611
#    num_fr : 54
#      time : 20110202 06:07:20.033 UTC
#      unix : 1296626840.033316
#       ntp : DRIFT 0 16000000 516
#       seq : 52789496
#       mul : 0 [A]
#      site : 01
#    latlon : 45.5749 -94.3965 370.0
#      text : Collegeville
#     label : 
#     plate : metal_20100816_20100506-404-gd3
#      geom : 640 480
#    reject : 0
#
#  fr    time   sum     seq       cx       cy      th      phi    lsp    mag  flag
   29  -1.201  1553 52789460  416.150  366.737  41.680 -168.124  -6.05  -6.05  0000
   32  -1.101  1838 52789463  418.729  366.865  42.198 -168.782  -6.62  -6.62  0000
   33  -1.068  2007 52789464  419.222  367.066  42.332 -168.862  -6.95  -6.95  0000
   34  -1.034  2511 52789465  419.479  367.088  42.386 -168.924  -7.41  -7.41  0000
   35  -1.001  3350 52789466  420.495  367.267  42.618 -169.145  -7.95  -7.95  0000
   36  -0.968  3429 52789467  422.234  367.346  42.972 -169.575  -8.15  -8.15  0000
   37  -0.934  3809 52789468  422.089  367.742  43.022 -169.440  -8.33  -8.33  0000
   38  -0.901  4235 52789469  422.508  367.954  43.145 -169.495  -8.43  -8.43  0000
   39  -0.868  4737 52789470  424.444  367.768  43.488 -170.031  -8.65  -8.65  0000
   40  -0.834  4476 52789471  425.297  367.658  43.635 -170.271  -8.50  -8.50  0000
   41  -0.801  4330 52789472  425.845  367.874  43.786 -170.354  -8.51  -8.51  0000
   42  -0.767  4747 52789473  426.469  367.907  43.917 -170.501  -8.68  -8.68  0000
   43  -0.734  5737 52789474  427.679  368.335  44.241 -170.692  -8.89  -8.89  0000
   44  -0.701  4479 52789475  428.721  368.216  44.427 -170.975  -8.57  -8.57  0000
   45  -0.667  4428 52789476  429.303  368.176  44.537 -171.125  -8.55  -8.55  0000
   46  -0.634  4529 52789477  429.774  368.091  44.615 -171.259  -8.69  -8.69  0000
   47  -0.601  4600 52789478  431.428  368.247  44.981 -171.614  -8.57  -8.57  0000
   48  -0.567  4547 52789479  432.085  368.386  45.141 -171.734  -8.62  -8.62  0000
   49  -0.534  4383 52789480  432.740  368.483  45.293 -171.864  -8.56  -8.56  0000
   50  -0.501  4586 52789481  434.101  368.666  45.608 -172.135  -8.57  -8.57  0000
   51  -0.467  4438 52789482  434.969  368.721  45.797 -172.321  -8.47  -8.47  0000
   52  -0.434  4694 52789483  435.542  368.868  45.943 -172.416  -8.69  -8.69  0000
   53  -0.400  4339 52789484  436.470  368.730  46.109 -172.660  -8.53  -8.53  0000
   54  -0.367  4454 52789485  438.012  369.068  46.494 -172.924  -8.48  -8.48  0000
   55  -0.334  4773 52789486  438.574  369.005  46.600 -173.064  -8.64  -8.64  0000
   56  -0.300  4471 52789487  439.564  368.880  46.784 -173.313  -8.62  -8.62  0000
   57  -0.267  5110 52789488  440.913  369.128  47.115 -173.548  -8.76  -8.76  0000
   58  -0.234  4896 52789489  441.568  369.276  47.281 -173.654  -8.68  -8.68  0000
   59  -0.200  4777 52789490  442.467  369.153  47.449 -173.877  -8.79  -8.79  0000
   60  -0.167  4305 52789491  443.185  368.948  47.564 -174.080  -8.68  -8.68  0000
   61  -0.133  4883 52789492  444.548  369.738  48.001 -174.178  -8.71  -8.71  0000
   62  -0.100  5407 52789493  445.548  369.489  48.170 -174.448  -8.91  -8.91  0000
   63  -0.067  4500 52789494  446.510  369.121  48.310 -174.736  -8.64  -8.64  0000
   64  -0.033  4906 52789495  447.696  369.723  48.676 -174.836  -8.74  -8.74  0000
   65   0.000  5916 52789496  448.501  369.545  48.819 -175.043  -9.07  -9.07  0000
   66   0.033  4926 52789497  449.555  369.304  49.004 -175.314  -8.79  -8.79  0000
   67   0.067  5176 52789498  451.206  369.852  49.464 -175.514  -8.79  -8.79  0000
   68   0.100  5496 52789499  451.654  369.507  49.501 -175.685  -8.96  -8.96  0000
   69   0.133  5502 52789500  453.353  369.918  49.949 -175.921  -8.77  -8.77  0000
   70   0.167  5136 52789501  454.161  370.094  50.159 -176.037  -8.71  -8.71  0000
   71   0.200  4858 52789502  454.730  369.957  50.261 -176.180  -8.75  -8.75  0000
   72   0.234  5399 52789503  455.744  369.796  50.458 -176.412  -8.94  -8.94  0000
   73   0.267  5563 52789504  457.407  370.195  50.900 -176.634  -8.82  -8.82  0000
   74   0.300  4572 52789505  457.805  370.146  50.981 -176.721  -8.65  -8.65  0000
   75   0.334  4982 52789506  458.695  369.789  51.118 -176.972  -8.84  -8.84  0000
   76   0.367  4394 52789507  460.585  370.066  51.594 -177.256  -8.50  -8.50  0000
   77   0.400  3996 52789508  461.072  369.832  51.663 -177.400  -8.41  -8.41  0000
   78   0.434  3956 52789509  461.234  369.868  51.706 -177.422  -8.42  -8.42  0000
   79   0.467  3836 52789510  463.422  370.166  52.256 -177.747  -8.23  -8.23  0000
   80   0.501  3072 52789511  463.866  370.064  52.340 -177.851  -7.97  -7.97  0000
   81   0.534  2798 52789512  464.106  370.217  52.421 -177.858  -7.72  -7.72  0000
   82   0.567  2095 52789513  464.339  370.095  52.454 -177.928  -6.88  -6.88  0000
   83   0.601  1879 52789514  466.167  370.079  52.871 -178.254  -6.72  -6.72  0000
   84   0.634  1657 52789515  466.325  369.541  52.816 -178.407  -6.29  -6.29  0000
