#
#   version : 20090611
#    num_fr : 28
#      time : 20141010 05:42:36.840 UTC
#      unix : 1412919756.840836
#       ntp : LOCK 1081 974288 5356
#       seq : 136056058
#       mul : 0 [A]
#      site : 01
#    latlon : 45.5749 -94.3965 370.0
#      text : Collegeville
#     label : 
#     plate : metal_20100816_20100506-404-gd3
#      geom : 640 480
#    reject : 0
#
#  fr    time   sum     seq       cx       cy      th      phi    lsp    mag  flag
   29  -0.601  3382 136056040  516.343  344.893  61.900  169.020  -4.63   2.19  0000
   30  -0.567  2835 136056041  519.884  345.172  62.900  168.731  -6.49   0.33  0000
   31  -0.534  3137 136056042  519.770  346.112  62.981  168.955  -7.20  -0.38  0000
   32  -0.501  4797 136056043  521.330  347.018  63.517  169.005  -7.71  -0.89  0000
   33  -0.467  5949 136056044  522.455  346.510  63.765  168.781  -8.11  -1.29  0000
   34  -0.434  5095 136056045  524.034  348.108  64.391  168.984  -8.39  -1.57  0000
   35  -0.400  4936 136056046  524.843  348.361  64.644  168.962  -8.57  -1.75  0000
   36  -0.367  5110 136056047  525.865  349.093  65.015  169.025  -8.66  -1.84  0000
   37  -0.334  5631 136056048  527.562  349.749  65.563  169.006  -8.67  -1.85  0000
   38  -0.300  7555 136056049  527.758  350.049  65.654  169.053  -8.71  -1.89  0000
   39  -0.267  7269 136056050  529.570  350.881  66.256  169.062  -8.67  -1.85  0000
   40  -0.234  7613 136056051  530.096  351.327  66.457  169.108  -8.92  -2.10  0000
   41  -0.200  7401 136056052  531.956  352.531  67.121  169.192  -9.02  -2.20  0000
   42  -0.167  7505 136056053  532.549  352.660  67.302  169.164  -9.23  -2.41  0000
   43  -0.133  6751 136056054  533.690  352.714  67.626  169.069  -9.32  -2.50  0000
   44  -0.100  8417 136056055  535.470  353.476  68.217  169.067  -9.51  -2.69  0000
   45  -0.067  7989 136056056  535.688  353.708  68.306  169.096  -9.60  -2.78  0000
   46  -0.033  8642 136056057  537.985  354.629  69.063  169.079  -9.26  -2.44  0000
   47   0.000  9412 136056058  538.168  354.702  69.123  169.078  -9.41  -2.59  0000
   48   0.033  7918 136056059  538.789  355.920  69.449  169.275  -9.58  -2.76  0000
   49   0.067  7895 136056060  540.618  356.722  70.063  169.275  -9.45  -2.63  0000
   50   0.100  8290 136056061  541.479  356.734  70.307  169.201  -9.63  -2.81  0000
   51   0.133  8177 136056062  541.785  356.728  70.392  169.172  -9.64  -2.82  0000
   52   0.167  8213 136056063  543.594  358.115  71.077  169.294  -9.51  -2.69  0000
   53   0.200  6646 136056064  543.910  358.223  71.180  169.288  -9.56  -2.74  0000
   54   0.234  6502 136056065  545.615  358.291  71.671  169.152  -8.70  -1.88  0000
   55   0.267  4955 136056066  547.262  359.875  72.339  169.327  -7.99  -1.17  0000
   56   0.300  4630 136056067  547.254  359.887  72.338  169.330  -7.28  -0.46  0000
