#
#   version : 20090611
#    num_fr : 20
#      time : 20100718 07:46:01.260 UTC
#      unix : 1279439161.260643
#       ntp : LOCK 1614 685646 5884
#       seq : 5680006
#       mul : 0 [A]
#      site : 01
#    latlon : 45.5749 -94.3965 370.0
#      text : Collegeville
#     label : 
#     plate : metal 20090611
#      geom : 640 480
#    reject : 0
#
#  fr    time   sum     seq       cx       cy      th      phi    lsp    mag  flag
   30  -0.267  2102 5679998   97.566  116.885  67.167   -3.147  -6.17  -6.17  0000
   31  -0.234  2228 5679999   98.052  116.018  67.162   -2.919  -6.61  -6.61  0000
   32  -0.200  2499 5680000   98.064  115.474  67.237   -2.807  -6.69  -6.69  0000
   33  -0.167  2576 5680001   98.307  114.337  67.337   -2.550  -6.75  -6.75  0000
   34  -0.133  3655 5680002   97.847  113.589  67.567   -2.447  -7.60  -7.60  0000
   35  -0.100  3882 5680003   97.343  112.563  67.849   -2.293  -8.03  -8.03  0000
   36  -0.067  4832 5680004   96.776  111.808  68.109   -2.201  -8.44  -8.44  0000
   37  -0.033  5515 5680005   97.030  110.695  68.207   -1.952  -8.75  -8.75  0000
   38   0.000  6969 5680006   96.733  109.657  68.439   -1.776  -9.13  -9.13  0000
   39   0.033  6620 5680007   96.677  108.837  68.576   -1.620  -9.05  -9.05  0000
   40   0.067  6690 5680008   96.157  108.055  68.830   -1.521  -9.12  -9.12  0000
   41   0.100  6046 5680009   96.314  106.918  68.961   -1.280  -8.94  -8.94  0000
   42   0.133  6102 5680010   96.215  105.930  69.137   -1.097  -8.88  -8.88  0000
   43   0.167  4822 5680011   96.388  105.096  69.219   -0.915  -8.56  -8.56  0000
   44   0.200  5367 5680012   96.355  103.722  69.439   -0.651  -8.55  -8.55  0000
   45   0.234  4523 5680013   95.663  103.614  69.636   -0.705  -8.28  -8.28  0000
   46   0.267  4861 5680014   95.206  102.212  69.973   -0.484  -8.64  -8.64  0000
   47   0.300  5822 5680015   95.190  101.268  70.125   -0.304  -8.75  -8.75  0000
   48   0.334  4137 5680016   95.175  101.033  70.166   -0.261  -8.11  -8.11  0000
   49   0.367  4340 5680017   94.524   98.975  70.660    0.061  -7.99  -7.99  0000
