#
#   version : 20090611
#    num_fr : 43
#      time : 20100815 09:17:10.618 UTC
#      unix : 1281863830.618888
#       ntp : LOCK 860 734633 590
#       seq : 3595154
#       mul : 0 [A]
#      site : 01
#    latlon : 45.5749 -94.3965 370.0
#      text : Collegeville
#     label : 
#     plate : metal 20090611
#      geom : 640 480
#    reject : 0
#
#  fr    time   sum     seq       cx       cy      th      phi    lsp    mag  flag
   30  -1.034  1963 3595123  552.187  164.268  69.741  129.045  -7.00  -7.00  0000
   31  -1.001  2220 3595124  552.686  162.975  70.000  128.799  -7.24  -7.24  0000
   32  -0.968  2153 3595125  552.867  161.295  70.201  128.456  -7.22  -7.22  0000
   33  -0.934  2052 3595126  553.143  160.866  70.321  128.381  -7.14  -7.14  0000
   34  -0.901  1933 3595127  553.689  159.580  70.597  128.143  -7.06  -7.06  0000
   35  -0.868  2008 3595128  553.898  158.613  70.747  127.954  -6.84  -6.84  0000
   36  -0.834  1874 3595129  552.959  157.327  70.589  127.631  -6.85  -6.85  0000
   37  -0.801  2138 3595130  553.168  156.586  70.720  127.489  -6.90  -6.90  0000
   38  -0.767  1853 3595131  553.365  155.317  70.898  127.238  -6.81  -6.81  0000
   39  -0.734  2116 3595132  553.979  153.622  71.242  126.926  -7.12  -7.12  0000
   40  -0.701  2310 3595133  554.213  152.938  71.377  126.799  -7.62  -7.62  0000
   41  -0.667  2099 3595134  554.382  151.750  71.544  126.567  -7.10  -7.10  0000
   42  -0.634  1864 3595135  554.532  151.082  71.654  126.440  -6.74  -6.74  0000
   43  -0.601  1736 3595136  554.615  150.082  71.778  126.241  -6.73  -6.73  0000
   44  -0.567  1820 3595137  553.771  148.847  71.656  125.935  -6.83  -6.83  0000
   45  -0.534  2116 3595138  553.906  147.931  71.790  125.758  -7.14  -7.14  0000
   46  -0.500  1702 3595139  554.512  146.931  72.071  125.595  -6.84  -6.84  0000
   47  -0.467  1511 3595140  554.860  145.756  72.296  125.381  -6.56  -6.56  0000
   48  -0.434  1647 3595141  555.151  145.189  72.441  125.287  -6.54  -6.54  0000
   49  -0.400  2294 3595142  554.998  143.267  72.601  124.891  -7.19  -7.19  0000
   50  -0.367  2272 3595143  554.266  142.467  72.474  124.681  -7.09  -7.09  0000
   51  -0.334  1880 3595144  554.777  141.077  72.775  124.440  -7.17  -7.17  0000
   52  -0.300  1820 3595145  554.576  140.358  72.796  124.283  -6.80  -6.80  0000
   53  -0.267  1821 3595146  555.356  139.458  73.124  124.159  -6.92  -6.92  0000
   54  -0.234  1469 3595147  555.231  138.189  73.230  123.900  -6.14  -6.14  0000
   55  -0.200  1509 3595148  555.578  136.842  73.485  123.660  -6.34  -6.34  0000
   56  -0.167  1806 3595149  554.171  136.112  73.159  123.415  -6.62  -6.62  0000
   57  -0.133  1602 3595150  554.700  134.915  73.452  123.219  -6.43  -6.43  0000
   58  -0.100  1467 3595151  555.146  134.110  73.676  123.094  -6.63  -6.63  0000
   59  -0.067  1213 3595152  555.175  133.246  73.786  122.928  -5.78  -5.78  0000
   60  -0.033  2094 3595153  555.169  131.895  73.945  122.666  -7.03  -7.03  0000
   61   0.000  2787 3595154  555.514  131.204  74.128  122.558  -7.78  -7.78  0000
   62   0.033  2120 3595155  554.332  130.161  73.912  122.267  -6.88  -6.88  0000
   63   0.067  1622 3595156  554.612  129.059  74.127  122.076  -6.61  -6.61  0000
   64   0.100  1491 3595157  555.295  127.867  74.471  121.899  -6.45  -6.45  0000
   65   0.133  1308 3595158  555.343  128.058  74.462  121.940  -5.92  -5.92  0000
   66   0.167  1778 3595159  555.883  125.670  74.916  121.526  -6.74  -6.74  0000
   67   0.200  1508 3595160  555.192  125.413  74.748  121.423  -6.26  -6.26  0000
   68   0.234  1946 3595161  554.320  124.213  74.650  121.127  -6.81  -6.81  0000
   70   0.300  1685 3595163  555.217  122.154  75.173  120.809  -6.87  -6.87  0000
   73   0.400  1679 3595166  554.954  119.226  75.481  120.238  -6.45  -6.45  0000
   75   0.467  1008 3595168  553.381  117.944  75.202  119.870  -5.50  -5.50  0000
   76   0.501  1784 3595169  553.931  117.197  75.460  119.776  -6.92  -6.92  0000
