#
#   version : 20090611
#    num_fr : 40
#      time : 20151220 02:16:25.487 UTC
#      unix : 1450577785.487988
#       ntp : LOCK -2450 1031181 2481
#       seq : 65762788
#       mul : 0 [A]
#      site : 01
#    latlon : 45.5749 -94.3965 370.0
#      text : Collegeville
#     label : 
#     plate : metal_20100816_20100506-404-gd3
#      geom : 640 480
#    reject : 0
#
#  fr    time   sum     seq       cx       cy      th      phi    lsp    mag  flag
   29  -1.635  3537 65762739  327.979  160.812  23.588   64.307  -6.45   0.37  0000
   31  -1.568  3263 65762741  329.033  159.853  23.889   64.862  -5.78   1.04  0000
   32  -1.535  2813 65762742  329.835  158.738  24.220   65.225  -6.34   0.48  0000
   33  -1.502  2766 65762743  330.599  157.853  24.490   65.585  -6.13   0.69  0000
   34  -1.468  3539 65762744  330.735  156.068  24.960   65.443  -6.47   0.35  0000
   35  -1.435  2966 65762745  331.270  155.624  25.104   65.709  -6.54   0.28  0000
   38  -1.335  3869 65762748  331.479  151.428  26.203   65.318  -6.75   0.07  0000
   39  -1.301  3686 65762749  333.791  151.569  26.298   66.663  -6.48   0.34  0000
   40  -1.268  3212 65762750  333.953  150.030  26.706   66.556  -7.03  -0.21  0000
   41  -1.235  2333 65762751  334.000  149.984  26.721   66.577  -6.30   0.52  0000
   42  -1.201  3511 65762752  333.345  147.255  27.390   65.877  -6.69   0.13  0000
   44  -1.134  3899 65762754  334.051  145.946  27.769   66.107  -6.79   0.03  0000
   45  -1.101  3307 65762755  335.351  144.910  28.115   66.682  -6.08   0.74  0000
   46  -1.068  3094 65762756  336.944  143.844  28.490   67.394  -6.79   0.03  0000
   48  -1.001  2838 65762758  336.280  140.973  29.192   66.695  -6.31   0.51  0000
   50  -0.934  3352 65762760  337.300  139.714  29.582   67.068  -6.90  -0.08  0000
   51  -0.901  3468 65762761  338.282  138.910  29.852   67.466  -6.38   0.44  0000
   53  -0.834  3701 65762763  339.068  136.046  30.645   67.509  -6.05   0.77  0000
   54  -0.801  3407 65762764  340.050  135.086  30.958   67.872  -6.73   0.09  0000
   55  -0.767  2943 65762765  341.067  133.749  31.373   68.197  -6.72   0.10  0000
   56  -0.734  2557 65762766  341.099  132.837  31.611   68.101  -6.63   0.19  0000
   57  -0.701  3688 65762767  341.233  131.740  31.905   68.033  -6.52   0.30  0000
   61  -0.567  3709 65762771  344.952  127.154  33.353   69.181  -6.82   0.00  0000
   62  -0.534  2998 65762772  344.197  126.283  33.525   68.738  -7.13  -0.31  0000
   63  -0.501  2774 65762773  345.152  125.057  33.911   69.014  -7.16  -0.34  0000
   64  -0.467  3085 65762774  345.941  124.195  34.191   69.257  -7.24  -0.42  0000
   65  -0.434  3795 65762775  346.163  123.754  34.322   69.300  -6.95  -0.13  0000
   66  -0.400  3179 65762776  346.860  122.232  34.768   69.418  -6.58   0.24  0000
   67  -0.367  3890 65762777  347.035  121.781  34.897   69.439  -6.47   0.35  0000
   68  -0.334  3872 65762778  347.227  119.893  35.401   69.296  -6.27   0.55  0000
   69  -0.300  3927 65762779  347.242  119.836  35.417   69.296  -6.29   0.53  0000
   70  -0.267  2537 65762780  348.983  118.132  35.990   69.823  -5.58   1.24  0000
   71  -0.234  2657 65762781  349.025  117.527  36.150   69.768  -6.01   0.81  0000
   72  -0.200  3436 65762782  350.491  115.587  36.766   70.137  -5.07   1.75  0000
   74  -0.133  2500 65762784  351.007  113.364  37.383   70.082  -6.34   0.48  0000
   75  -0.100  3815 65762785  351.006  112.487  37.610   69.980  -5.92   0.90  0000
   76  -0.067  3039 65762786  351.947  111.304  37.991   70.214  -5.55   1.27  0000
   77  -0.033  3427 65762787  352.800  110.335  38.310   70.435  -6.65   0.17  0000
   78   0.000  4576 65762788  353.961  109.640  38.584   70.803  -6.61   0.21  0000
   79   0.033  3723 65762789  354.627  108.042  39.053   70.870  -6.79   0.03  0000
