#
#   version : 20090611
#    num_fr : 42
#      time : 20100807 03:58:30.299 UTC
#      unix : 1281153510.299768
#       ntp : LOCK -52833 244918 9113
#       seq : 110802
#       mul : 0 [A]
#      site : 01
#    latlon : 45.5749 -94.3965 370.0
#      text : Collegeville
#     label : 
#     plate : metal 20090611
#      geom : 640 480
#    reject : 0
#
#  fr    time   sum     seq       cx       cy      th      phi    lsp    mag  flag
   30  -1.001  1072  110772  301.275  368.765  34.426 -118.845  -5.55  -5.55  0000
   31  -0.968  1165  110773  302.110  372.299  35.342 -119.334  -5.98  -5.98  0000
   32  -0.934  1687  110774  301.580  374.877  36.034 -119.189  -6.41  -6.41  0000
   33  -0.901  2083  110775  301.361  378.529  37.005 -119.214  -6.97  -6.97  0000
   34  -0.868  2351  110776  300.278  382.241  38.011 -118.889  -7.22  -7.22  0000
   35  -0.834  2296  110777  300.308  384.610  38.640 -118.979  -7.41  -7.41  0000
   36  -0.801  2754  110778  300.087  388.108  39.575 -119.002  -7.62  -7.62  0000
   37  -0.767  2936  110779  299.828  391.088  40.374 -118.995  -7.75  -7.75  0000
   38  -0.734  3103  110780  299.529  394.089  41.181 -118.973  -8.02  -8.02  0000
   39  -0.701  3156  110781  298.950  397.084  41.994 -118.849  -7.95  -7.95  0000
   40  -0.667  2985  110782  299.314  400.369  42.866 -119.080  -8.05  -8.05  0000
   41  -0.634  3501  110783  298.722  402.913  43.561 -118.941  -8.27  -8.27  0000
   42  -0.601  3783  110784  298.964  406.177  44.433 -119.120  -8.31  -8.31  0000
   43  -0.567  3763  110785  298.568  408.915  45.178 -119.058  -8.45  -8.45  0000
   44  -0.534  4474  110786  298.540  412.447  46.132 -119.145  -8.51  -8.51  0000
   45  -0.501  4107  110787  298.330  414.823  46.779 -119.138  -8.54  -8.54  0000
   46  -0.467  4639  110788  297.796  417.994  47.649 -119.046  -8.71  -8.71  0000
   47  -0.434  4414  110789  297.953  420.586  48.349 -119.165  -8.58  -8.58  0000
   48  -0.400  4649  110790  297.219  423.949  49.279 -119.017  -8.77  -8.77  0000
   49  -0.367  4893  110791  297.015  426.452  49.965 -119.018  -8.69  -8.69  0000
   50  -0.334  4626  110792  297.088  429.226  50.721 -119.111  -8.74  -8.74  0000
   51  -0.300  4930  110793  296.652  431.462  51.341 -119.033  -8.81  -8.81  0000
   52  -0.267  5526  110794  296.234  434.276  52.121 -118.977  -8.84  -8.84  0000
   53  -0.234  4441  110795  296.452  437.168  52.911 -119.114  -8.65  -8.65  0000
   54  -0.200  5269  110796  295.965  439.748  53.631 -119.033  -8.93  -8.93  0000
   55  -0.167  4772  110797  295.797  441.970  54.247 -119.038  -8.77  -8.77  0000
   56  -0.133  4451  110798  295.728  444.928  55.066 -119.089  -8.57  -8.57  0000
   57  -0.100  4746  110799  295.324  447.607  55.817 -119.037  -8.77  -8.77  0000
   58  -0.067  5656  110800  295.407  449.871  56.443 -119.114  -9.03  -9.03  0000
   59  -0.033  5436  110801  295.169  452.434  57.161 -119.106  -8.92  -8.92  0000
   60   0.000  5935  110802  294.825  454.387  57.713 -119.057  -9.06  -9.06  0000
   61   0.033  5001  110803  294.909  456.852  58.399 -119.136  -8.81  -8.81  0000
   62   0.067  4582  110804  294.512  459.386  59.117 -119.085  -8.58  -8.58  0000
   63   0.100  4855  110805  294.180  461.234  59.642 -119.038  -8.71  -8.71  0000
   64   0.133  4729  110806  293.929  463.333  60.237 -119.019  -8.73  -8.73  0000
   65   0.167  4452  110807  293.921  465.808  60.934 -119.072  -8.64  -8.64  0000
   66   0.200  4428  110808  293.493  467.873  61.526 -119.007  -8.55  -8.55  0000
   67   0.234  4503  110809  293.580  469.607  62.014 -119.067  -8.58  -8.58  0000
   68   0.267  4362  110810  293.329  472.003  62.698 -119.055  -8.57  -8.57  0000
   69   0.300  4348  110811  293.296  473.567  63.142 -119.081  -8.59  -8.59  0000
   70   0.334  3288  110812  292.806  475.580  63.726 -119.001  -7.93  -7.93  0000
   71   0.367  2333  110813  292.827  476.877  64.095 -119.034  -7.50  -7.50  0000
