#
#   version : 20090611
#    num_fr : 129
#      time : 20141117 02:07:51.107 UTC
#      unix : 1416190071.107733
#       ntp : LOCK -60 1591704 479
#       seq : 234065180
#       mul : 0 [A]
#      site : 01
#    latlon : 45.5749 -94.3965 370.0
#      text : Collegeville
#     label : 
#     plate : metal_20100816_20100506-404-gd3
#      geom : 640 480
#    reject : 0
#
#  fr    time   sum     seq       cx       cy      th      phi    lsp    mag  flag
   29  -1.001  6161 234065150  394.148  219.353  23.350  124.143  -9.08  -2.26  0000
   30  -0.968  7226 234065151  393.826  220.060  23.205  124.497  -9.34  -2.52  0000
   31  -0.934  6201 234065152  393.624  220.304  23.132  124.600  -9.04  -2.22  0000
   32  -0.901  6176 234065153  393.550  220.431  23.102  124.661  -9.03  -2.21  0000
   33  -0.868  6273 234065154  392.918  221.167  22.877  124.972  -9.06  -2.24  0000
   34  -0.834  7377 234065155  393.014  221.314  22.889  125.083  -9.39  -2.57  0000
   35  -0.801  6510 234065156  392.871  222.262  22.773  125.638  -9.07  -2.25  0000
   36  -0.767  6326 234065157  392.783  222.800  22.706  125.955  -8.99  -2.17  0000
   37  -0.734  6485 234065158  392.707  222.981  22.671  126.052  -9.05  -2.23  0000
   38  -0.701  6335 234065159  392.418  223.328  22.569  126.208  -9.06  -2.24  0000
   39  -0.667  6246 234065160  391.837  223.866  22.377  126.426  -9.03  -2.21  0000
   40  -0.634  6177 234065161  391.803  224.246  22.338  126.661  -9.06  -2.24  0000
   41  -0.601  6250 234065162  391.591  224.511  22.262  126.786  -9.05  -2.23  0000
   42  -0.567  6469 234065163  391.393  224.799  22.189  126.930  -9.12  -2.30  0000
   43  -0.534  5844 234065164  391.304  225.369  22.122  127.278  -8.99  -2.17  0000
   44  -0.501  5874 234065165  391.756  226.401  22.163  128.033  -8.83  -2.01  0000
   45  -0.467  5694 234065166  391.138  227.029  21.957  128.322  -8.83  -2.01  0000
   46  -0.434  5651 234065167  391.167  227.273  21.947  128.487  -8.88  -2.06  0000
   47  -0.400  5650 234065168  390.951  227.583  21.869  128.649  -8.83  -2.01  0000
   48  -0.367  5748 234065169  390.759  228.085  21.785  128.944  -8.77  -1.95  0000
   49  -0.334  5772 234065170  390.676  228.356  21.745  129.108  -8.85  -2.03  0000
   50  -0.300  6105 234065171  390.473  228.545  21.679  129.196  -8.97  -2.15  0000
   51  -0.267  6159 234065172  389.680  229.262  21.425  129.531  -9.07  -2.25  0000
   52  -0.234  5705 234065173  389.575  229.429  21.386  129.624  -8.88  -2.06  0000
   53  -0.200  5847 234065174  389.757  230.493  21.366  130.374  -8.78  -1.96  0000
   54  -0.167  5943 234065175  389.677  230.909  21.319  130.642  -8.84  -2.02  0000
   55  -0.133  5709 234065176  389.514  231.173  21.260  130.794  -8.87  -2.05  0000
   56  -0.100  5818 234065177  389.158  232.087  21.113  131.362  -8.84  -2.02  0000
   57  -0.067  5466 234065178  388.881  232.281  21.029  131.450  -8.72  -1.90  0000
   58  -0.033  5404 234065179  388.839  232.741  20.992  131.762  -8.67  -1.85  0000
   59   0.000  8665 234065180  388.269  233.408  20.805  132.137  -9.47  -2.65  0000
   60   0.033  5685 234065181  388.145  233.710  20.756  132.330  -8.91  -2.09  0000
   61   0.067  5323 234065182  388.194  233.972  20.755  132.521  -8.79  -1.97  0000
   62   0.100  5216 234065183  387.895  234.213  20.664  132.646  -8.73  -1.91  0000
   63   0.133  6511 234065184  388.082  234.662  20.690  132.990  -8.95  -2.13  0000
   64   0.167  5511 234065185  387.635  234.983  20.556  133.153  -8.82  -2.00  0000
   65   0.200  5468 234065186  387.126  236.216  20.362  133.964  -8.77  -1.95  0000
   66   0.234  5110 234065187  387.167  236.432  20.363  134.124  -8.60  -1.78  0000
   67   0.267  7891 234065188  387.157  236.915  20.339  134.470  -9.39  -2.57  0000
   68   0.300  5455 234065189  386.490  237.494  20.137  134.806  -8.78  -1.96  0000
   69   0.334  5754 234065190  386.092  237.914  20.014  135.064  -8.84  -2.02  0000
   70   0.367  5520 234065191  385.669  238.448  19.880  135.407  -8.77  -1.95  0000
   71   0.400  7354 234065192  385.794  238.828  19.899  135.702  -9.26  -2.44  0000
   72   0.434  5838 234065193  385.384  239.198  19.776  135.930  -8.88  -2.06  0000
   73   0.467  5816 234065194  385.370  239.566  19.758  136.202  -9.01  -2.19  0000
   74   0.501  5606 234065195  385.164  240.034  19.687  136.530  -8.88  -2.06  0000
   75   0.534  5260 234065196  385.065  240.260  19.653  136.689  -8.66  -1.84  0000
   76   0.567  5401 234065197  384.817  240.623  19.575  136.937  -8.70  -1.88  0000
   77   0.601  5202 234065198  384.656  241.480  19.505  137.568  -8.64  -1.82  0000
   78   0.634  5281 234065199  384.136  242.167  19.347  138.044  -8.72  -1.90  0000
   79   0.667  5101 234065200  384.070  242.610  19.317  138.377  -8.63  -1.81  0000
   80   0.701  5185 234065201  383.830  242.989  19.243  138.649  -8.63  -1.81  0000
   81   0.734  5382 234065202  383.561  243.640  19.156  139.131  -8.82  -2.00  0000
   82   0.767  5346 234065203  383.567  243.907  19.152  139.337  -8.80  -1.98  0000
   83   0.801  5382 234065204  383.341  244.306  19.083  139.631  -8.77  -1.95  0000
   84   0.834  5564 234065205  382.872  244.928  18.945  140.086  -8.82  -2.00  0000
   85   0.868  5374 234065206  382.540  245.150  18.852  140.241  -8.72  -1.90  0000
   86   0.901  5594 234065207  382.344  245.410  18.795  140.435  -8.74  -1.92  0000
   87   0.934  5460 234065208  382.384  246.376  18.792  141.198  -8.72  -1.90  0000
   88   0.968  5511 234065209  382.275  246.552  18.760  141.333  -8.74  -1.92  0000
   89   1.001  5527 234065210  382.106  247.075  18.709  141.740  -8.71  -1.89  0000
   90   1.034  5099 234065211  381.540  247.816  18.550  142.312  -8.64  -1.82  0000
   91   1.068  5336 234065212  381.424  248.050  18.517  142.496  -8.74  -1.92  0000
   92   1.101  5246 234065213  381.322  248.343  18.488  142.728  -8.73  -1.91  0000
   93   1.134  4920 234065214  381.071  248.741  18.418  143.044  -8.73  -1.91  0000
   94   1.168  5149 234065215  381.085  249.359  18.420  143.542  -8.72  -1.90  0000
   95   1.201  5180 234065216  380.820  249.548  18.348  143.691  -8.76  -1.94  0000
   96   1.235  7939 234065217  379.892  250.181  18.099  144.203  -9.45  -2.63  0000
   97   1.268  5112 234065218  380.180  250.515  18.177  144.475  -8.68  -1.86  0000
   98   1.301  5085 234065219  380.512  251.589  18.269  145.347  -8.62  -1.80  0000
   99   1.335  5093 234065220  380.369  251.964  18.234  145.654  -8.53  -1.71  0000
  100   1.368  7002 234065221  379.661  251.876  18.043  145.596  -9.26  -2.44  0000
  101   1.401  5157 234065222  379.259  252.925  17.945  146.470  -8.57  -1.75  0000
  102   1.435  5259 234065223  379.277  253.343  17.955  146.815  -8.66  -1.84  0000
  103   1.468  5127 234065224  379.221  253.342  17.939  146.816  -8.73  -1.91  0000
  104   1.502  6640 234065225  378.636  254.242  17.796  147.588  -9.14  -2.32  0000
  105   1.535  4850 234065226  378.375  254.486  17.730  147.804  -8.60  -1.78  0000
  106   1.568  5083 234065227  378.396  254.773  17.741  148.043  -8.73  -1.91  0000
  107   1.602  4874 234065228  378.716  255.678  17.844  148.775  -8.66  -1.84  0000
  108   1.635  6249 234065229  377.806  255.639  17.600  148.804  -9.02  -2.20  0000
  109   1.668  5155 234065230  378.395  256.793  17.784  149.723  -8.58  -1.76  0000
  110   1.702  4754 234065231  377.850  257.385  17.655  150.262  -8.58  -1.76  0000
  111   1.735  4724 234065232  377.562  257.671  17.586  150.528  -8.55  -1.73  0000
  112   1.768  4548 234065233  377.485  258.017  17.576  150.826  -8.50  -1.68  0000
  113   1.802  4544 234065234  377.335  258.232  17.543  151.020  -8.54  -1.72  0000
  114   1.835  4942 234065235  377.119  258.492  17.494  151.261  -8.69  -1.87  0000
  115   1.869  5055 234065236  376.452  259.175  17.340  151.912  -8.72  -1.90  0000
  116   1.902  4742 234065237  376.370  259.536  17.331  152.228  -8.60  -1.78  0000
  117   1.935  4900 234065238  376.371  260.567  17.372  153.099  -8.48  -1.66  0000
  118   1.969  4666 234065239  376.233  260.845  17.347  153.352  -8.53  -1.71  0000
  119   2.002  4746 234065240  375.582  261.518  17.204  154.015  -8.51  -1.69  0000
  120   2.035  4890 234065241  375.589  261.751  17.216  154.211  -8.56  -1.74  0000
  121   2.069  4231 234065242  375.006  262.417  17.094  154.869  -8.36  -1.54  0000
  122   2.102  4407 234065243  375.317  262.415  17.176  154.817  -8.41  -1.59  0000
  123   2.135  4551 234065244  374.557  263.478  17.031  155.851  -8.55  -1.73  0000
  124   2.169  4338 234065245  374.670  263.712  17.073  156.029  -8.52  -1.70  0000
  125   2.202  4258 234065246  374.640  264.066  17.084  156.335  -8.45  -1.63  0000
  126   2.236  4495 234065247  374.430  264.372  17.046  156.634  -8.46  -1.64  0000
  127   2.269  4836 234065248  374.262  264.727  17.023  156.968  -8.62  -1.80  0000
  128   2.302  4816 234065249  374.074  265.646  17.029  157.784  -8.67  -1.85  0000
  129   2.336  4492 234065250  373.468  266.411  16.920  158.563  -8.39  -1.57  0000
  130   2.369  4416 234065251  373.437  266.634  16.927  158.759  -8.36  -1.54  0000
  131   2.402  4612 234065252  373.098  266.980  16.862  159.129  -8.52  -1.70  0000
  132   2.436  4507 234065253  372.682  267.688  16.804  159.829  -8.43  -1.61  0000
  133   2.469  7613 234065254  371.901  267.181  16.567  159.585  -9.55  -2.73  0000
  134   2.503  4500 234065255  371.986  268.748  16.703  160.904  -8.31  -1.49  0000
  135   2.536  4274 234065256  371.855  268.955  16.685  161.114  -8.35  -1.53  0000
  136   2.569  4217 234065257  371.467  269.618  16.637  161.781  -8.50  -1.68  0000
  137   2.603  6037 234065258  371.128  269.833  16.568  162.058  -8.86  -2.04  0000
  138   2.636  4285 234065259  370.836  270.231  16.526  162.479  -8.39  -1.57  0000
  139   2.669  4188 234065260  370.945  270.613  16.585  162.773  -8.41  -1.59  0000
  140   2.703  4599 234065261  370.762  271.531  16.617  163.601  -8.55  -1.73  0000
  141   2.736  5914 234065262  370.020  271.436  16.422  163.748  -9.04  -2.22  0000
  142   2.769  4540 234065263  370.619  272.205  16.641  164.210  -8.43  -1.61  0000
  143   2.803  4446 234065264  370.297  272.746  16.609  164.764  -8.41  -1.59  0000
  144   2.836  4664 234065265  369.879  273.536  16.579  165.559  -8.49  -1.67  0000
  145   2.870  6258 234065266  369.409  274.283  16.535  166.338  -9.03  -2.21  0000
  146   2.903  5086 234065267  369.166  274.550  16.501  166.645  -8.66  -1.84  0000
  147   2.936  4540 234065268  368.920  274.910  16.477  167.030  -8.39  -1.57  0000
  148   2.970  4594 234065269  368.742  275.304  16.474  167.420  -8.53  -1.71  0000
  149   3.003  4769 234065270  368.166  275.733  16.377  167.986  -8.57  -1.75  0000
  150   3.036  4242 234065271  367.789  276.153  16.330  168.476  -8.37  -1.55  0000
  151   3.070  4366 234065272  367.894  276.495  16.393  168.718  -8.33  -1.51  0000
  152   3.103  4447 234065273  367.636  276.468  16.327  168.794  -8.49  -1.67  0000
  153   3.136  4293 234065274  367.543  277.813  16.454  169.932  -8.47  -1.65  0000
  154   3.170  4338 234065275  367.076  278.425  16.412  170.616  -8.42  -1.60  0000
  155   3.203  4087 234065276  367.105  278.612  16.441  170.755  -8.33  -1.51  0000
  156   3.237  4582 234065277  366.994  279.070  16.469  171.169  -8.47  -1.65  0000
  157   3.270  4574 234065278  366.434  279.800  16.424  171.990  -8.51  -1.69  0000
