#
#   version : 20090611
#    num_fr : 62
#      time : 20130627 04:55:46.221 UTC
#      unix : 1372308946.221118
#       ntp : LOCK 467 409677 754
#       seq : 11680161
#       mul : 0 [A]
#      site : 01
#    latlon : 45.5749 -94.3965 370.0
#      text : Collegeville
#     label : 
#     plate : metal_20100816_20100506-404-gd3
#      geom : 640 480
#    reject : 0
#
#  fr    time   sum     seq       cx       cy      th      phi    lsp    mag  flag
   29  -1.535  2541 11680115  140.846  227.873  47.179  -29.511  -5.64   1.18  0000
   31  -1.468  2519 11680117  140.204  225.321  47.456  -28.733  -5.88   0.94  0000
   32  -1.435  2617 11680118  140.608  224.379  47.378  -28.415  -6.19   0.63  0000
   34  -1.368  3375 11680120  138.429  221.137  48.136  -27.516  -6.67   0.15  0000
   35  -1.335  3212 11680121  138.332  221.091  48.166  -27.507  -6.66   0.16  0000
   36  -1.301  3050 11680122  138.813  219.927  48.082  -27.118  -7.00  -0.18  0000
   37  -1.268  3249 11680123  139.705  218.959  47.874  -26.765  -6.76   0.06  0000
   38  -1.235  3183 11680124  138.112  217.566  48.395  -26.430  -6.74   0.08  0000
   39  -1.201  3132 11680125  137.715  216.242  48.575  -26.049  -7.02  -0.20  0000
   40  -1.168  3518 11680126  137.991  215.227  48.550  -25.720  -7.14  -0.32  0000
   41  -1.134  3470 11680127  138.502  213.968  48.474  -25.301  -7.32  -0.50  0000
   42  -1.101  3596 11680128  137.543  213.002  48.799  -25.072  -7.34  -0.52  0000
   43  -1.068  3755 11680129  137.515  211.610  48.887  -24.651  -7.53  -0.71  0000
   44  -1.034  3134 11680130  137.513  210.399  48.960  -24.286  -7.64  -0.82  0000
   45  -1.001  4232 11680131  137.111  209.806  49.110  -24.136  -7.86  -1.04  0000
   46  -0.968  4641 11680132  136.350  208.048  49.434  -23.666  -7.92  -1.10  0000
   47  -0.934  4264 11680133  136.725  207.105  49.389  -23.356  -7.91  -1.09  0000
   48  -0.901  4399 11680134  136.715  206.001  49.464  -23.028  -7.94  -1.12  0000
   49  -0.868  5194 11680135  136.788  205.033  49.508  -22.734  -8.23  -1.41  0000
   50  -0.834  5024 11680136  137.037  203.569  49.539  -22.280  -8.18  -1.36  0000
   51  -0.801  4887 11680137  136.029  202.261  49.915  -21.979  -8.24  -1.42  0000
   52  -0.767  5022 11680138  135.803  201.359  50.044  -21.733  -8.28  -1.46  0000
   53  -0.734  4897 11680139  135.257  199.586  50.328  -21.264  -8.13  -1.31  0000
   54  -0.701  4820 11680140  135.176  198.857  50.406  -21.060  -8.12  -1.30  0000
   55  -0.667  4943 11680141  135.287  197.263  50.498  -20.590  -8.16  -1.34  0000
   56  -0.634  4639 11680142  135.407  196.075  50.559  -20.237  -8.02  -1.20  0000
   57  -0.601  3874 11680143  135.371  195.407  50.622  -20.048  -7.91  -1.09  0000
   58  -0.567  4345 11680144  134.299  194.059  51.032  -19.764  -7.73  -0.91  0000
   59  -0.534  4040 11680145  134.822  192.990  50.975  -19.411  -7.92  -1.10  0000
   60  -0.500  4319 11680146  134.789  191.147  51.141  -18.893  -7.83  -1.01  0000
   61  -0.467  4036 11680147  134.562  190.478  51.262  -18.727  -7.64  -0.82  0000
   62  -0.434  4362 11680148  133.410  189.055  51.708  -18.443  -7.74  -0.92  0000
   63  -0.400  3993 11680149  133.851  187.893  51.690  -18.075  -7.55  -0.73  0000
   64  -0.367  3984 11680150  133.752  187.576  51.746  -17.997  -7.38  -0.56  0000
   65  -0.334  3606 11680151  133.950  186.094  51.828  -17.567  -7.47  -0.65  0000
   66  -0.300  3928 11680152  133.148  183.547  52.289  -16.952  -7.37  -0.55  0000
   67  -0.267  3930 11680153  133.093  182.990  52.358  -16.806  -7.60  -0.78  0000
   68  -0.234  3380 11680154  133.522  181.739  52.363  -16.420  -7.44  -0.62  0000
   69  -0.200  4109 11680155  133.515  181.413  52.397  -16.332  -7.45  -0.63  0000
   70  -0.167  4030 11680156  133.600  179.396  52.576  -15.778  -7.62  -0.80  0000
   71  -0.133  4292 11680157  132.810  177.579  52.979  -15.379  -7.64  -0.82  0000
   72  -0.100  4492 11680158  132.996  176.983  52.990  -15.199  -8.00  -1.18  0000
   73  -0.067  4656 11680159  132.366  175.190  53.351  -14.796  -8.00  -1.18  0000
   74  -0.033  5643 11680160  132.334  174.608  53.422  -14.647  -8.47  -1.65  0000
   75   0.000  6921 11680161  132.079  172.970  53.668  -14.247  -8.92  -2.10  0000
   76   0.033  5714 11680162  132.243  171.907  53.741  -13.951  -8.64  -1.82  0000
   77   0.067  5445 11680163  132.229  171.126  53.831  -13.750  -8.54  -1.72  0000
   78   0.100  5117 11680164  132.019  169.348  54.088  -13.315  -8.27  -1.45  0000
   79   0.133  4695 11680165  131.799  168.385  54.258  -13.095  -8.13  -1.31  0000
   80   0.167  4427 11680166  131.792  166.730  54.451  -12.673  -7.95  -1.13  0000
   81   0.200  4478 11680167  131.559  165.751  54.629  -12.453  -7.94  -1.12  0000
   82   0.234  4782 11680168  131.754  165.141  54.649  -12.275  -8.12  -1.30  0000
   83   0.267  4216 11680169  131.163  163.668  54.983  -11.978  -7.67  -0.85  0000
   84   0.300  3801 11680170  131.766  162.622  54.948  -11.640  -7.53  -0.71  0000
   85   0.334  3095 11680171  131.731  161.117  55.142  -11.270  -7.03  -0.21  0000
   86   0.367  3390 11680172  131.835  160.672  55.169  -11.146  -6.96  -0.14  0000
   87   0.400  3938 11680173  131.984  159.564  55.268  -10.853  -7.46  -0.64  0000
   88   0.434  5052 11680174  130.867  157.969  55.766  -10.606  -8.29  -1.47  0000
   89   0.467  3427 11680175  131.745  156.880  55.672  -10.225  -7.59  -0.77  0000
   90   0.501  3636 11680176  130.923  155.854  56.021  -10.084  -7.36  -0.54  0000
   91   0.534  3132 11680177  131.674  154.759  55.966   -9.720  -6.82   0.00  0000
   92   0.567  3109 11680178  131.518  153.854  56.125   -9.523  -6.69   0.13  0000
