#
#   version : 20090611
#    num_fr : 68
#      time : 20101117 08:23:27.219 UTC
#      unix : 1289982207.219441
#       ntp : LOCK 505 579519 2400
#       seq : 8895686
#       mul : 0 [A]
#      site : 01
#    latlon : 45.5749 -94.3965 370.0
#      text : Collegeville
#     label : 
#     plate : metal_20100816_20100506-404-gd3
#      geom : 640 480
#    reject : 0
#
#  fr    time   sum     seq       cx       cy      th      phi    lsp    mag  flag
   29  -1.768  1857 8895633  307.673  245.830   1.509    8.945  -5.97  -5.97  0000
   31  -1.702  1812 8895635  308.268  242.029   2.241   29.908  -6.09  -6.09  0000
   32  -1.668  1792 8895636  309.039  239.102   2.891   39.716  -6.07  -6.07  0000
   33  -1.635  1724 8895637  310.407  238.064   3.090   47.478  -6.00  -6.00  0000
   34  -1.602  1949 8895638  309.504  235.111   3.878   45.193  -6.28  -6.28  0000
   36  -1.535  1651 8895640  310.130  232.031   4.647   48.684  -6.05  -6.05  0000
   37  -1.501  1816 8895641  311.297  229.869   5.188   52.646  -5.92  -5.92  0000
   38  -1.468  1928 8895642  311.772  227.325   5.844   54.008  -6.05  -6.05  0000
   39  -1.435  1998 8895643  311.614  225.554   6.302   53.605  -6.10  -6.10  0000
   40  -1.401  2047 8895644  312.103  223.718   6.777   54.713  -6.37  -6.37  0000
   41  -1.368  1889 8895645  312.241  221.555   7.337   54.925  -6.17  -6.17  0000
   42  -1.335  1728 8895646  313.180  219.958   7.758   56.705  -6.05  -6.05  0000
   44  -1.268  2027 8895648  312.776  215.402   8.933   55.619  -6.09  -6.09  0000
   45  -1.235  2360 8895649  313.268  214.280   9.228   56.372  -6.64  -6.64  0000
   46  -1.201  1829 8895650  314.859  212.465   9.724   58.736  -6.06  -6.06  0000
   47  -1.168  2427 8895651  315.220  210.333  10.283   58.997  -6.62  -6.62  0000
   48  -1.134  2244 8895652  314.677  207.764  10.937   57.918  -6.50  -6.50  0000
   49  -1.101  1893 8895653  315.079  206.321  11.318   58.318  -6.38  -6.38  0000
   50  -1.068  2118 8895654  315.131  204.410  11.814   58.189  -6.68  -6.68  0000
   51  -1.034  2344 8895655  316.139  202.936  12.218   59.304  -6.63  -6.63  0000
   52  -1.001  2141 8895656  316.601  200.850  12.770   59.613  -6.37  -6.37  0000
   53  -0.968  2135 8895657  316.177  198.961  13.249   58.906  -6.35  -6.35  0000
   54  -0.934  2387 8895658  316.530  197.300  13.688   59.132  -6.71  -6.71  0000
   55  -0.901  2237 8895659  317.388  195.223  14.249   59.839  -6.46  -6.46  0000
   56  -0.868  2380 8895660  318.123  193.808  14.637   60.446  -6.65  -6.65  0000
   57  -0.834  2493 8895661  318.140  191.583  15.214   60.203  -6.68  -6.68  0000
   58  -0.801  2519 8895662  317.868  189.208  15.822   59.684  -6.64  -6.64  0000
   59  -0.767  2345 8895663  318.566  188.009  16.153   60.225  -6.86  -6.86  0000
   60  -0.734  2591 8895664  318.759  186.004  16.680   60.193  -6.84  -6.84  0000
   61  -0.701  2349 8895665  319.654  184.186  17.179   60.803  -6.71  -6.71  0000
   64  -0.601  2488 8895668  320.026  178.175  18.753   60.501  -6.69  -6.69  0000
   65  -0.567  2432 8895669  321.663  175.554  19.490   61.536  -6.58  -6.58  0000
   66  -0.534  2582 8895670  321.792  173.549  20.016   61.426  -6.98  -6.98  0000
   67  -0.501  2635 8895671  321.198  171.421  20.550   60.772  -6.67  -6.67  0000
   68  -0.467  2646 8895672  321.913  169.808  20.994   61.146  -7.09  -7.09  0000
   69  -0.434  2905 8895673  322.302  167.680  21.563   61.223  -7.36  -7.36  0000
   70  -0.400  3229 8895674  322.883  166.274  21.950   61.498  -7.43  -7.43  0000
   71  -0.367  3236 8895675  322.976  165.215  22.229   61.462  -7.39  -7.39  0000
   72  -0.334  3259 8895676  322.828  162.961  22.813   61.157  -7.36  -7.36  0000
   73  -0.300  3497 8895677  323.047  161.071  23.315   61.138  -7.64  -7.64  0000
   74  -0.267  3231 8895678  323.647  159.439  23.763   61.385  -7.62  -7.62  0000
   75  -0.234  3547 8895679  324.923  157.756  24.250   62.044  -7.69  -7.69  0000
   76  -0.200  3444 8895680  324.966  155.800  24.763   61.893  -7.70  -7.70  0000
   77  -0.167  3621 8895681  324.523  153.700  25.297   61.442  -7.69  -7.69  0000
   78  -0.133  3617 8895682  325.332  151.964  25.782   61.780  -7.90  -7.90  0000
   79  -0.100  3956 8895683  325.340  150.406  26.191   61.655  -8.06  -8.06  0000
   80  -0.067  4445 8895684  325.998  148.810  26.635   61.903  -8.28  -8.28  0000
   81  -0.033  4461 8895685  326.375  147.288  27.048   61.991  -8.35  -8.35  0000
   82   0.000  5025 8895686  326.474  145.173  27.608   61.873  -8.34  -8.34  0000
   83   0.033  4871 8895687  326.874  143.448  28.077   61.954  -8.41  -8.41  0000
   84   0.067  4378 8895688  326.972  141.986  28.466   61.891  -8.30  -8.30  0000
   85   0.100  4711 8895689  327.624  140.613  28.852   62.131  -8.47  -8.47  0000
   86   0.133  4785 8895690  328.035  139.115  29.263   62.228  -8.50  -8.50  0000
   87   0.167  4149 8895691  328.352  137.581  29.680   62.271  -8.22  -8.22  0000
   88   0.200  4588 8895692  328.243  135.555  30.210   62.058  -8.28  -8.28  0000
   89   0.234  4222 8895693  328.566  134.163  30.591   62.116  -8.26  -8.26  0000
   90   0.267  3986 8895694  329.027  133.069  30.898   62.262  -8.07  -8.07  0000
   91   0.300  3817 8895695  329.178  131.245  31.386   62.200  -8.01  -8.01  0000
   92   0.334  3847 8895696  329.745  129.982  31.743   62.381  -7.92  -7.92  0000
   93   0.367  3670 8895697  329.617  127.783  32.320   62.158  -7.60  -7.60  0000
   94   0.400  3642 8895698  329.889  126.988  32.542   62.229  -7.52  -7.52  0000
   95   0.434  3130 8895699  329.829  125.342  32.976   62.084  -7.31  -7.31  0000
   96   0.467  3278 8895700  330.291  124.202  33.297   62.217  -7.26  -7.26  0000
   97   0.500  2821 8895701  331.263  122.134  33.886   62.514  -7.18  -7.18  0000
   98   0.534  2801 8895702  331.196  121.674  34.006   62.451  -6.90  -6.90  0000
   99   0.567  2532 8895703  332.051  119.141  34.715   62.652  -6.60  -6.60  0000
  100   0.601  2592 8895704  331.551  117.474  35.138   62.316  -6.49  -6.49  0000
  101   0.634  2517 8895705  331.370  115.975  35.530   62.137  -6.56  -6.56  0000
