#
#   version : 20090611
#    num_fr : 46
#      time : 20101004 05:40:01.476 UTC
#      unix : 1286170801.476231
#       ntp : LOCK -12140 234392 5308
#       seq : 65021557
#       mul : 0 [A]
#      site : 01
#    latlon : 45.5749 -94.3965 370.0
#      text : Collegeville
#     label : 
#     plate : metal 20090611
#      geom : 640 480
#    reject : 0
#
#  fr    time   sum     seq       cx       cy      th      phi    lsp    mag  flag
   29  -0.934  1014 65021529  295.518  332.019  25.043 -113.528  -5.55  -5.55  0000
   31  -0.868  1221 65021531  301.604  334.970  25.584 -117.413  -6.11  -6.11  0000
   32  -0.834  1294 65021532  305.461  335.000  25.507 -119.716  -6.25  -6.25  0000
   33  -0.801  1152 65021533  308.606  336.429  25.840 -121.631  -6.47  -6.47  0000
   34  -0.767  1503 65021534  312.275  337.462  26.100 -123.803  -6.48  -6.48  0000
   35  -0.734  1521 65021535  315.672  338.495  26.393 -125.773  -6.76  -6.76  0000
   36  -0.701  1803 65021536  320.188  339.255  26.669 -128.352  -6.83  -6.83  0000
   37  -0.667  1831 65021537  323.087  340.477  27.065 -129.935  -6.85  -6.85  0000
   38  -0.634  2148 65021538  326.022  341.781  27.504 -131.486  -7.12  -7.12  0000
   39  -0.601  2099 65021539  329.581  342.380  27.810 -133.389  -7.32  -7.32  0000
   40  -0.567  2394 65021540  334.345  343.249  28.283 -135.863  -7.33  -7.33  0000
   41  -0.534  2440 65021541  337.139  344.744  28.835 -137.159  -7.50  -7.50  0000
   42  -0.501  2445 65021542  340.807  345.288  29.223 -138.973  -7.69  -7.69  0000
   43  -0.467  2620 65021543  344.223  346.289  29.734 -140.549  -7.88  -7.88  0000
   44  -0.434  2989 65021544  348.281  347.163  30.291 -142.401  -8.01  -8.01  0000
   45  -0.400  3138 65021545  351.667  348.343  30.891 -143.823  -8.11  -8.11  0000
   46  -0.367  3210 65021546  355.255  348.840  31.363 -145.402  -8.08  -8.08  0000
   47  -0.334  3392 65021547  358.586  349.742  31.929 -146.746  -8.14  -8.14  0000
   48  -0.300  3388 65021548  361.845  350.573  32.487 -148.027  -8.07  -8.07  0000
   49  -0.267  3466 65021549  364.462  351.270  32.954 -149.020  -8.18  -8.18  0000
   50  -0.234  3362 65021550  367.978  351.986  33.545 -150.355  -8.17  -8.17  0000
   51  -0.200  2973 65021551  371.830  352.904  34.244 -151.739  -8.07  -8.07  0000
   52  -0.167  3295 65021552  375.202  353.647  34.858 -152.919  -8.28  -8.28  0000
   53  -0.133  3311 65021553  378.555  354.173  35.435 -154.098  -8.24  -8.24  0000
   54  -0.100  3398 65021554  382.006  354.820  36.069 -155.251  -8.27  -8.27  0000
   55  -0.067  3495 65021555  385.392  355.524  36.720 -156.330  -8.33  -8.33  0000
   56  -0.033  3852 65021556  388.371  356.181  37.313 -157.242  -8.35  -8.35  0000
   57   0.000  3978 65021557  391.526  356.713  37.915 -158.213  -8.42  -8.42  0000
   58   0.033  3808 65021558  394.403  357.427  38.524 -159.023  -8.38  -8.38  0000
   59   0.067  3497 65021559  397.516  358.003  39.149 -159.916  -8.27  -8.27  0000
   60   0.100  3272 65021560  400.849  358.340  39.770 -160.906  -8.21  -8.21  0000
   61   0.133  3661 65021561  404.031  358.898  40.424 -161.770  -8.30  -8.30  0000
   62   0.167  3720 65021562  406.600  359.554  41.002 -162.403  -8.32  -8.32  0000
   63   0.200  3444 65021563  409.520  360.042  41.613 -163.160  -8.23  -8.23  0000
   64   0.234  3180 65021564  412.038  360.335  42.119 -163.825  -8.16  -8.16  0000
   65   0.267  3105 65021565  415.481  360.833  42.841 -164.688  -8.18  -8.18  0000
   66   0.300  3207 65021566  418.734  361.285  43.529 -165.483  -8.18  -8.18  0000
   67   0.334  3263 65021567  421.717  361.550  44.138 -166.226  -8.02  -8.02  0000
   68   0.367  3332 65021568  424.186  362.349  44.763 -166.696  -7.87  -7.87  0000
   69   0.400  2798 65021569  426.972  362.634  45.352 -167.350  -7.80  -7.80  0000
   70   0.434  2137 65021570  429.937  363.045  46.007 -168.005  -7.51  -7.51  0000
   71   0.467  2183 65021571  431.951  363.066  46.405 -168.497  -7.17  -7.17  0000
   72   0.501  2153 65021572  433.765  363.498  46.847 -168.842  -6.92  -6.92  0000
   73   0.534  1766 65021573  436.856  363.345  47.434 -169.613  -6.81  -6.81  0000
   74   0.567  1302 65021574  440.002  363.665  48.132 -170.275  -5.97  -5.97  0000
   75   0.601  1363 65021575  442.262  364.493  48.750 -170.607  -5.92  -5.92  0000
