#
#   version : 20090611
#    num_fr : 129
#      time : 20160119 10:52:43.439 UTC
#      unix : 1453200763.439458
#       ntp : LOCK 748 439513 1391
#       seq : 15134114
#       mul : 0 [A]
#      site : 01
#    latlon : 45.5749 -94.3965 370.0
#      text : Collegeville
#     label : 
#     plate : metal_20100816_20100506-404-gd3
#      geom : 640 480
#    reject : 0
#
#  fr    time   sum     seq       cx       cy      th      phi    lsp    mag  flag
   29  -4.071  3490 15133992  285.048  358.750  29.299 -111.739  -8.24  -1.42  0000
   30  -4.037  3606 15133993  285.418  358.709  29.264 -111.922  -8.21  -1.39  0000
   31  -4.004  4190 15133994  285.637  358.799  29.272 -112.044  -8.40  -1.58  0000
   32  -3.971  4300 15133995  286.356  358.860  29.240 -112.417  -8.60  -1.78  0000
   33  -3.937  4626 15133996  286.712  358.926  29.234 -112.606  -8.63  -1.81  0000
   34  -3.904  4741 15133997  287.295  359.451  29.334 -112.962  -8.60  -1.78  0000
   35  -3.871  4548 15133998  287.639  359.487  29.322 -113.141  -8.58  -1.76  0000
   36  -3.837  4217 15133999  287.923  359.620  29.339 -113.300  -8.54  -1.72  0000
   37  -3.804  4587 15134000  288.045  359.797  29.378 -113.381  -8.63  -1.81  0000
   38  -3.770  4815 15134001  288.579  359.772  29.339 -113.651  -8.71  -1.89  0000
   39  -3.737  5251 15134002  289.213  359.562  29.247 -113.953  -8.79  -1.97  0000
   40  -3.704  5205 15134003  290.075  359.786  29.257 -114.417  -8.83  -2.01  0000
   41  -3.670  4803 15134004  290.510  360.002  29.289 -114.661  -8.68  -1.86  0000
   42  -3.637  4360 15134005  290.781  359.883  29.243 -114.789  -8.57  -1.75  0000
   43  -3.604  4380 15134006  291.081  360.060  29.274 -114.960  -8.58  -1.76  0000
   44  -3.570  4264 15134007  291.057  360.046  29.271 -114.946  -8.59  -1.77  0000
   45  -3.537  4391 15134008  291.376  360.104  29.269 -115.115  -8.60  -1.78  0000
   46  -3.504  4787 15134009  291.884  360.315  29.298 -115.396  -8.80  -1.98  0000
   47  -3.470  5096 15134010  292.904  360.119  29.196 -115.904  -8.79  -1.97  0000
   48  -3.437  4836 15134011  293.801  360.311  29.204 -116.383  -8.59  -1.77  0000
   49  -3.403  4405 15134012  294.094  360.232  29.169 -116.529  -8.48  -1.66  0000
   50  -3.370  4122 15134013  294.288  360.291  29.176 -116.633  -8.38  -1.56  0000
   51  -3.337  3624 15134014  294.490  360.472  29.215 -116.752  -8.30  -1.48  0000
   52  -3.303  3617 15134015  294.409  360.525  29.232 -116.715  -8.26  -1.44  0000
   53  -3.270  3862 15134016  295.099  360.371  29.161 -117.060  -8.27  -1.45  0000
   54  -3.237  3835 15134017  295.609  360.877  29.273 -117.362  -8.18  -1.36  0000
   55  -3.203  4118 15134018  296.093  360.847  29.245 -117.610  -8.23  -1.41  0000
   56  -3.170  3942 15134019  297.158  360.598  29.137 -118.146  -8.22  -1.40  0000
   57  -3.136  3526 15134020  297.438  360.831  29.188 -118.307  -8.25  -1.43  0000
   58  -3.103  3714 15134021  297.333  360.723  29.164 -118.245  -8.25  -1.43  0000
   59  -3.070  3368 15134022  297.683  360.806  29.173 -118.433  -8.22  -1.40  0000
   60  -3.036  3313 15134023  298.200  361.196  29.257 -118.725  -8.14  -1.32  0000
   61  -3.003  3371 15134024  298.304  361.325  29.288 -118.787  -8.10  -1.28  0000
   62  -2.970  3881 15134025  299.011  361.271  29.249 -119.151  -8.12  -1.30  0000
   63  -2.936  3668 15134026  299.443  361.393  29.267 -119.382  -7.97  -1.15  0000
   64  -2.903  3856 15134027  300.447  361.511  29.268 -119.910  -8.21  -1.39  0000
   65  -2.870  3727 15134028  300.882  361.578  29.273 -120.140  -8.27  -1.45  0000
   66  -2.836  3429 15134029  300.946  361.710  29.306 -120.179  -8.24  -1.42  0000
   67  -2.803  3570 15134030  301.360  361.420  29.218 -120.381  -8.29  -1.47  0000
   68  -2.769  3847 15134031  301.498  361.659  29.277 -120.464  -8.33  -1.51  0000
   69  -2.736  4092 15134032  301.520  362.006  29.369 -120.491  -8.37  -1.55  0000
   70  -2.703  4480 15134033  302.508  361.646  29.248 -120.989  -8.58  -1.76  0000
   71  -2.669  4805 15134034  303.514  361.770  29.257 -121.519  -8.65  -1.83  0000
   72  -2.636  4465 15134035  303.638  362.152  29.357 -121.597  -8.63  -1.81  0000
   73  -2.603  4253 15134036  303.780  362.233  29.375 -121.673  -8.53  -1.71  0000
   74  -2.569  4350 15134037  304.202  362.424  29.417 -121.898  -8.58  -1.76  0000
   75  -2.536  4672 15134038  304.543  362.343  29.389 -122.073  -8.59  -1.77  0000
   76  -2.503  4865 15134039  305.047  362.354  29.382 -122.335  -8.68  -1.86  0000
   77  -2.469  4790 15134040  305.462  362.217  29.339 -122.547  -8.75  -1.93  0000
   78  -2.436  4925 15134041  305.925  362.135  29.309 -122.786  -8.80  -1.98  0000
   79  -2.402  4808 15134042  306.621  362.477  29.390 -123.156  -8.68  -1.86  0000
   80  -2.369  4755 15134043  306.765  362.683  29.443 -123.236  -8.61  -1.79  0000
   81  -2.336  4502 15134044  307.233  362.669  29.433 -123.478  -8.56  -1.74  0000
   82  -2.302  4504 15134045  307.694  362.783  29.458 -123.720  -8.63  -1.81  0000
   83  -2.269  5010 15134046  308.075  362.504  29.379 -123.914  -8.78  -1.96  0000
   84  -2.236  4780 15134047  308.386  362.540  29.386 -124.076  -8.66  -1.84  0000
   85  -2.202  4151 15134048  308.862  362.647  29.410 -124.325  -8.54  -1.72  0000
   86  -2.169  4200 15134049  309.795  362.714  29.421 -124.810  -8.49  -1.67  0000
   87  -2.135  3920 15134050  310.013  362.983  29.492 -124.925  -8.31  -1.49  0000
   88  -2.102  3826 15134051  310.336  362.772  29.434 -125.092  -8.29  -1.47  0000
   89  -2.069  3664 15134052  310.540  362.946  29.479 -125.198  -8.24  -1.42  0000
   90  -2.035  3545 15134053  310.728  363.049  29.506 -125.296  -8.21  -1.39  0000
   91  -2.002  3779 15134054  311.458  362.609  29.386 -125.675  -8.19  -1.37  0000
   92  -1.969  3570 15134055  311.710  362.672  29.403 -125.806  -8.19  -1.37  0000
   93  -1.935  3801 15134056  312.543  363.151  29.530 -126.236  -8.13  -1.31  0000
   94  -1.902  3485 15134057  312.814  363.185  29.540 -126.376  -8.07  -1.25  0000
   95  -1.869  3303 15134058  313.297  363.337  29.581 -126.625  -8.05  -1.23  0000
   96  -1.835  3303 15134059  313.705  363.253  29.560 -126.837  -8.07  -1.25  0000
   97  -1.802  3416 15134060  313.745  363.339  29.583 -126.857  -8.03  -1.21  0000
   98  -1.768  3594 15134061  314.146  363.290  29.572 -127.065  -8.03  -1.21  0000
   99  -1.735  3571 15134062  315.314  363.588  29.659 -127.663  -7.97  -1.15  0000
  100  -1.702  3744 15134063  315.643  363.582  29.660 -127.832  -8.09  -1.27  0000
  101  -1.668  3410 15134064  316.291  363.352  29.604 -128.172  -7.98  -1.16  0000
  102  -1.635  3236 15134065  316.215  363.428  29.624 -128.131  -8.12  -1.30  0000
  103  -1.602  3322 15134066  316.465  363.517  29.650 -128.258  -8.06  -1.24  0000
  104  -1.568  3619 15134067  316.894  363.520  29.656 -128.479  -8.21  -1.39  0000
  105  -1.535  4092 15134068  317.177  363.774  29.727 -128.617  -8.37  -1.55  0000
  106  -1.502  4442 15134069  317.722  363.724  29.721 -128.899  -8.59  -1.77  0000
  107  -1.468  4686 15134070  318.407  364.039  29.814 -129.240  -8.67  -1.85  0000
  108  -1.435  4467 15134071  318.647  364.191  29.859 -129.358  -8.54  -1.72  0000
  109  -1.401  4575 15134072  319.008  364.387  29.917 -129.536  -8.56  -1.74  0000
  110  -1.368  4319 15134073  319.671  363.919  29.804 -129.892  -8.53  -1.71  0000
  111  -1.335  4615 15134074  319.972  364.006  29.833 -130.043  -8.62  -1.80  0000
  112  -1.301  4753 15134075  320.290  364.155  29.878 -130.199  -8.69  -1.87  0000
  113  -1.268  4999 15134076  320.536  364.236  29.905 -130.321  -8.88  -2.06  0000
  114  -1.235  4946 15134077  321.151  363.904  29.830 -130.650  -8.79  -1.97  0000
  115  -1.201  4848 15134078  321.717  364.498  30.001 -130.910  -8.68  -1.86  0000
  116  -1.168  4652 15134079  321.996  364.484  30.003 -131.053  -8.62  -1.80  0000
  117  -1.134  4639 15134080  322.251  364.606  30.042 -131.176  -8.63  -1.81  0000
  118  -1.101  4776 15134081  322.768  364.696  30.079 -131.433  -8.74  -1.92  0000
  119  -1.068  5166 15134082  323.270  364.377  30.007 -131.704  -8.80  -1.98  0000
  120  -1.034  4895 15134083  323.531  364.509  30.050 -131.829  -8.70  -1.88  0000
  121  -1.001  4964 15134084  323.666  364.515  30.055 -131.897  -8.70  -1.88  0000
  122  -0.968  4349 15134085  324.852  364.725  30.146 -132.484  -8.50  -1.68  0000
  123  -0.934  4064 15134086  325.103  364.832  30.182 -132.603  -8.35  -1.53  0000
  124  -0.901  3538 15134087  325.271  364.791  30.176 -132.691  -8.26  -1.44  0000
  125  -0.868  3707 15134088  325.561  364.980  30.236 -132.825  -8.18  -1.36  0000
  126  -0.834  3671 15134089  325.808  364.655  30.158 -132.970  -8.15  -1.33  0000
  127  -0.801  3530 15134090  326.449  364.648  30.178 -133.292  -8.06  -1.24  0000
  128  -0.767  3424 15134091  326.792  364.650  30.190 -133.464  -8.05  -1.23  0000
  129  -0.734  3359 15134092  327.762  364.748  30.252 -133.944  -7.98  -1.16  0000
  130  -0.701  3267 15134093  328.154  365.154  30.374 -134.109  -7.90  -1.08  0000
  131  -0.667  3037 15134094  328.351  365.270  30.412 -134.199  -7.90  -1.08  0000
  132  -0.634  2874 15134095  328.489  365.040  30.357 -134.285  -7.83  -1.01  0000
  133  -0.601  3211 15134096  328.799  364.927  30.340 -134.448  -7.79  -0.97  0000
  134  -0.567  3147 15134097  328.975  364.981  30.361 -134.531  -7.79  -0.97  0000
  135  -0.534  3007 15134098  329.690  364.751  30.330 -134.906  -7.74  -0.92  0000
  136  -0.501  3363 15134099  329.872  364.971  30.396 -134.979  -7.84  -1.02  0000
  137  -0.467  3283 15134100  331.316  365.120  30.499 -135.681  -7.74  -0.92  0000
  138  -0.434  3019 15134101  331.761  365.167  30.532 -135.896  -7.82  -1.00  0000
  139  -0.400  3128 15134102  331.677  365.200  30.537 -135.852  -7.88  -1.06  0000
  140  -0.367  3356 15134103  331.409  365.326  30.558 -135.709  -7.95  -1.13  0000
  141  -0.334  3410 15134104  331.737  365.392  30.590 -135.864  -7.99  -1.17  0000
  142  -0.300  4232 15134105  332.342  365.437  30.631 -136.158  -8.34  -1.52  0000
  143  -0.267  4637 15134106  333.434  365.641  30.739 -136.674  -8.48  -1.66  0000
  144  -0.234  4786 15134107  333.907  365.747  30.791 -136.894  -8.55  -1.73  0000
  145  -0.200  4405 15134108  334.187  365.566  30.758 -137.048  -8.50  -1.68  0000
  146  -0.167  4267 15134109  334.391  365.446  30.738 -137.160  -8.52  -1.70  0000
  147  -0.133  4561 15134110  334.635  365.686  30.814 -137.255  -8.59  -1.77  0000
  148  -0.100  4468 15134111  335.033  365.933  30.900 -137.423  -8.62  -1.80  0000
  149  -0.067  4707 15134112  335.279  365.971  30.923 -137.538  -8.70  -1.88  0000
  150  -0.033  5381 15134113  335.938  365.804  30.916 -137.874  -8.88  -2.06  0000
  151   0.000  5619 15134114  336.273  365.787  30.931 -138.038  -8.86  -2.04  0000
  152   0.033  5375 15134115  336.959  365.906  31.002 -138.356  -8.79  -1.97  0000
  153   0.067  4808 15134116  337.326  366.023  31.054 -138.520  -8.67  -1.85  0000
  154   0.100  4708 15134117  337.632  366.157  31.108 -138.652  -8.65  -1.83  0000
  155   0.133  4464 15134118  337.756  366.069  31.092 -138.721  -8.61  -1.79  0000
  156   0.167  4460 15134119  338.073  366.151  31.133 -138.864  -8.60  -1.78  0000
  157   0.200  4837 15134120  338.310  366.145  31.146 -138.978  -8.70  -1.88  0000
