#
#   version : 20090611
#    num_fr : 129
#      time : 20160119 10:52:33.796 UTC
#      unix : 1453200753.796439
#       ntp : LOCK 749 434513 1391
#       seq : 15133825
#       mul : 0 [A]
#      site : 01
#    latlon : 45.5749 -94.3965 370.0
#      text : Collegeville
#     label : 
#     plate : metal_20100816_20100506-404-gd3
#      geom : 640 480
#    reject : 0
#
#  fr    time   sum     seq       cx       cy      th      phi    lsp    mag  flag
   30  -1.101  4735 15133792  204.010  338.456  37.376  -74.790  -8.66  -1.84  0000
   31  -1.068  5041 15133793  204.384  338.639  37.325  -74.944  -8.76  -1.94  0000
   32  -1.034  5028 15133794  204.879  338.475  37.188  -75.020  -8.85  -2.03  0000
   33  -1.001  4714 15133795  205.118  338.556  37.150  -75.108  -8.66  -1.84  0000
   34  -0.968  5228 15133796  205.450  338.542  37.075  -75.190  -8.83  -2.01  0000
   35  -0.934  4765 15133797  206.173  338.804  36.962  -75.461  -8.75  -1.93  0000
   36  -0.901  4878 15133798  206.049  339.304  37.075  -75.585  -8.74  -1.92  0000
   37  -0.868  4561 15133799  206.277  339.254  37.017  -75.630  -8.61  -1.79  0000
   38  -0.834  4572 15133800  206.876  339.104  36.862  -75.741  -8.63  -1.81  0000
   39  -0.801  4929 15133801  207.165  339.247  36.824  -75.863  -8.72  -1.90  0000
   40  -0.767  5155 15133802  207.684  339.491  36.754  -76.078  -8.83  -2.01  0000
   41  -0.734  5197 15133803  208.596  339.534  36.566  -76.337  -8.91  -2.09  0000
   42  -0.701  4794 15133804  208.761  339.581  36.538  -76.397  -8.72  -1.90  0000
   43  -0.667  4374 15133805  209.047  339.479  36.459  -76.442  -8.58  -1.76  0000
   44  -0.634  4618 15133806  208.978  340.018  36.569  -76.592  -8.58  -1.76  0000
   45  -0.601  4488 15133807  209.500  340.353  36.517  -76.839  -8.61  -1.79  0000
   46  -0.567  4517 15133808  209.932  340.163  36.391  -76.899  -8.65  -1.83  0000
   47  -0.534  5247 15133809  210.138  340.204  36.354  -76.968  -8.80  -1.98  0000
   48  -0.501  5059 15133810  210.628  340.284  36.265  -77.129  -8.88  -2.06  0000
   49  -0.467  5002 15133811  211.154  340.558  36.202  -77.361  -8.76  -1.94  0000
   50  -0.434  4680 15133812  211.479  340.629  36.147  -77.474  -8.67  -1.85  0000
   51  -0.400  4640 15133813  211.665  340.811  36.140  -77.583  -8.60  -1.78  0000
   52  -0.367  4913 15133814  211.885  340.994  36.127  -77.701  -8.61  -1.79  0000
   53  -0.334  4945 15133815  212.517  341.007  35.997  -77.884  -8.70  -1.88  0000
   54  -0.300  5404 15133816  212.912  341.243  35.957  -78.069  -8.95  -2.13  0000
   55  -0.267  5299 15133817  213.190  341.044  35.863  -78.088  -8.88  -2.06  0000
   56  -0.234  5287 15133818  213.585  341.065  35.784  -78.207  -8.81  -1.99  0000
   57  -0.200  4946 15133819  214.343  341.307  35.671  -78.501  -8.74  -1.92  0000
   58  -0.167  4656 15133820  214.492  341.668  35.706  -78.656  -8.72  -1.90  0000
   59  -0.133  4826 15133821  214.734  341.736  35.669  -78.747  -8.74  -1.92  0000
   60  -0.100  4560 15133822  215.027  341.922  35.642  -78.890  -8.72  -1.90  0000
   61  -0.067  5270 15133823  215.299  341.955  35.593  -78.980  -8.94  -2.12  0000
   62  -0.033  5301 15133824  215.596  341.905  35.522  -79.052  -8.94  -2.12  0000
   63   0.000  5940 15133825  216.312  342.186  35.428  -79.350  -9.03  -2.21  0000
   64   0.033  5303 15133826  217.045  342.314  35.302  -79.608  -8.85  -2.03  0000
   65   0.067  4742 15133827  217.351  342.294  35.237  -79.693  -8.70  -1.88  0000
   66   0.100  4460 15133828  217.596  342.330  35.194  -79.778  -8.61  -1.79  0000
   67   0.133  4140 15133829  217.745  342.560  35.207  -79.894  -8.56  -1.74  0000
   68   0.167  3930 15133830  217.800  342.685  35.219  -79.949  -8.51  -1.69  0000
   69   0.200  4147 15133831  218.228  342.630  35.122  -80.061  -8.47  -1.65  0000
   70   0.234  4823 15133832  218.646  342.772  35.065  -80.232  -8.66  -1.84  0000
   71   0.267  4965 15133833  219.526  342.888  34.910  -80.537  -8.73  -1.91  0000
   72   0.300  5244 15133834  220.141  342.908  34.791  -80.733  -8.86  -2.04  0000
   73   0.334  4594 15133835  220.431  343.065  34.763  -80.871  -8.70  -1.88  0000
   74   0.367  4098 15133836  220.689  343.568  34.808  -81.104  -8.56  -1.74  0000
   75   0.400  4142 15133837  220.801  343.625  34.797  -81.156  -8.49  -1.67  0000
   76   0.434  3625 15133838  221.135  343.722  34.750  -81.290  -8.39  -1.57  0000
   77   0.467  3944 15133839  221.252  343.937  34.768  -81.392  -8.39  -1.57  0000
   78   0.501  4349 15133840  221.588  344.083  34.730  -81.542  -8.50  -1.68  0000
   79   0.534  4869 15133841  222.210  343.722  34.538  -81.629  -8.77  -1.95  0000
   80   0.567  4715 15133842  222.962  344.191  34.482  -82.010  -8.67  -1.85  0000
   81   0.601  4327 15133843  223.435  344.296  34.411  -82.194  -8.57  -1.75  0000
   82   0.634  4066 15133844  223.779  344.530  34.390  -82.375  -8.45  -1.63  0000
   83   0.667  4080 15133845  223.837  344.623  34.396  -82.421  -8.44  -1.62  0000
   84   0.701  4252 15133846  224.214  344.782  34.355  -82.591  -8.52  -1.70  0000
   85   0.734  4613 15133847  224.912  344.588  34.183  -82.760  -8.72  -1.90  0000
   86   0.767  4627 15133848  224.988  344.688  34.188  -82.815  -8.66  -1.84  0000
   87   0.801  4930 15133849  225.463  344.732  34.106  -82.983  -8.78  -1.96  0000
   88   0.834  4819 15133850  225.826  345.228  34.135  -83.251  -8.78  -1.96  0000
   89   0.868  4600 15133851  226.211  345.352  34.086  -83.415  -8.67  -1.85  0000
   90   0.901  4416 15133852  226.516  345.444  34.047  -83.543  -8.62  -1.80  0000
   91   0.934  4828 15133853  226.884  345.626  34.013  -83.720  -8.71  -1.89  0000
   92   0.968  5135 15133854  227.514  345.520  33.874  -83.899  -8.92  -2.10  0000
   93   1.001  5770 15133855  227.812  345.476  33.809  -83.986  -9.02  -2.20  0000
   94   1.034  5064 15133856  228.434  345.810  33.760  -84.295  -8.89  -2.07  0000
   95   1.068  4865 15133857  228.669  346.208  33.797  -84.491  -8.74  -1.92  0000
   96   1.101  4557 15133858  228.932  346.165  33.739  -84.569  -8.63  -1.81  0000
   97   1.134  4617 15133859  229.211  346.335  33.722  -84.713  -8.66  -1.84  0000
   98   1.168  4902 15133860  229.828  346.159  33.573  -84.873  -8.79  -1.97  0000
   99   1.201  4675 15133861  230.360  346.418  33.528  -85.133  -8.77  -1.95  0000
  100   1.235  5301 15133862  230.615  346.414  33.481  -85.220  -8.96  -2.14  0000
  101   1.268  4861 15133863  231.236  346.541  33.394  -85.473  -8.74  -1.92  0000
  102   1.301  4396 15133864  231.623  346.642  33.344  -85.637  -8.56  -1.74  0000
  103   1.335  3880 15133865  231.874  346.976  33.367  -85.822  -8.39  -1.57  0000
  104   1.368  4115 15133866  232.000  346.978  33.345  -85.867  -8.42  -1.60  0000
  105   1.401  4595 15133867  232.319  346.982  33.288  -85.980  -8.53  -1.71  0000
  106   1.435  4727 15133868  233.110  347.014  33.153  -86.270  -8.72  -1.90  0000
  107   1.468  4325 15133869  233.378  346.860  33.074  -86.321  -8.61  -1.79  0000
  108   1.502  4354 15133870  234.192  347.505  33.063  -86.797  -8.53  -1.71  0000
  109   1.535  4169 15133871  234.461  347.483  33.011  -86.888  -8.51  -1.69  0000
  110   1.568  3839 15133872  234.690  347.427  32.959  -86.954  -8.40  -1.58  0000
  111   1.602  4044 15133873  234.650  347.861  33.057  -87.063  -8.47  -1.65  0000
  112   1.635  4145 15133874  235.226  347.657  32.913  -87.214  -8.52  -1.70  0000
  113   1.668  4374 15133875  235.699  347.557  32.810  -87.358  -8.60  -1.78  0000
  114   1.702  4499 15133876  236.813  347.935  32.696  -87.873  -8.48  -1.66  0000
  115   1.735  4507 15133877  237.142  347.916  32.636  -87.989  -8.52  -1.70  0000
  116   1.768  4244 15133878  237.526  348.145  32.618  -88.196  -8.52  -1.70  0000
  117   1.802  3769 15133879  237.808  348.305  32.604  -88.345  -8.47  -1.65  0000
  118   1.835  3976 15133880  237.744  348.304  32.615  -88.321  -8.51  -1.69  0000
  119   1.869  3880 15133881  237.954  348.359  32.591  -88.415  -8.48  -1.66  0000
  120   1.902  4135 15133882  238.236  348.440  32.560  -88.543  -8.47  -1.65  0000
  121   1.935  4753 15133883  239.126  348.780  32.483  -88.971  -8.69  -1.87  0000
  122   1.969  5024 15133884  239.514  348.846  32.432  -89.136  -8.79  -1.97  0000
  123   2.002  5092 15133885  240.218  348.824  32.310  -89.397  -8.75  -1.93  0000
  124   2.035  4515 15133886  240.517  348.926  32.282  -89.539  -8.68  -1.86  0000
  125   2.069  4381 15133887  240.882  349.063  32.251  -89.716  -8.64  -1.82  0000
  126   2.102  4187 15133888  240.980  349.195  32.264  -89.790  -8.59  -1.77  0000
  127   2.135  4466 15133889  241.127  349.569  32.321  -89.948  -8.63  -1.81  0000
  128   2.169  4766 15133890  241.558  349.696  32.278  -90.148  -8.65  -1.83  0000
  129   2.202  5397 15133891  242.390  349.485  32.096  -90.412  -8.91  -2.09  0000
  130   2.236  5381 15133892  242.920  349.432  31.999  -90.605  -8.93  -2.11  0000
  131   2.269  5209 15133893  243.510  350.068  32.044  -91.006  -8.88  -2.06  0000
  132   2.302  4710 15133894  243.846  350.073  31.991  -91.139  -8.71  -1.89  0000
  133   2.336  4584 15133895  244.034  350.263  32.003  -91.263  -8.67  -1.85  0000
  134   2.369  4600 15133896  244.356  350.439  31.991  -91.437  -8.67  -1.85  0000
  135   2.402  4753 15133897  244.955  350.447  31.898  -91.676  -8.76  -1.94  0000
  136   2.436  4854 15133898  245.315  350.416  31.835  -91.811  -8.76  -1.94  0000
  137   2.469  5131 15133899  245.498  350.364  31.795  -91.871  -8.90  -2.08  0000
  138   2.503  4606 15133900  246.278  350.566  31.719  -92.236  -8.65  -1.83  0000
  139   2.536  4495 15133901  246.554  350.685  31.703  -92.378  -8.55  -1.73  0000
  140   2.569  3911 15133902  246.819  350.744  31.675  -92.500  -8.41  -1.59  0000
  141   2.603  4245 15133903  247.074  351.050  31.704  -92.682  -8.40  -1.58  0000
  142   2.636  4485 15133904  247.599  350.904  31.591  -92.857  -8.55  -1.73  0000
  143   2.669  4414 15133905  248.200  350.811  31.479  -93.078  -8.61  -1.79  0000
  144   2.703  4268 15133906  248.409  350.992  31.489  -93.210  -8.58  -1.76  0000
  145   2.736  4129 15133907  249.357  351.370  31.432  -93.695  -8.45  -1.63  0000
  146   2.769  3999 15133908  249.486  351.513  31.445  -93.785  -8.39  -1.57  0000
  147   2.803  3870 15133909  249.812  351.414  31.375  -93.895  -8.39  -1.57  0000
  148   2.836  3864 15133910  250.024  351.391  31.338  -93.976  -8.41  -1.59  0000
  149   2.870  4257 15133911  250.412  351.506  31.307  -94.167  -8.50  -1.68  0000
  150   2.903  4489 15133912  251.219  351.615  31.214  -94.531  -8.57  -1.75  0000
  151   2.936  4270 15133913  252.030  351.835  31.147  -94.926  -8.53  -1.71  0000
  152   2.970  4089 15133914  252.245  352.102  31.178  -95.082  -8.46  -1.64  0000
  153   3.003  3652 15133915  252.489  352.002  31.120  -95.161  -8.36  -1.54  0000
  154   3.036  4247 15133916  252.639  352.087  31.118  -95.245  -8.42  -1.60  0000
  155   3.070  3869 15133917  253.217  352.259  31.076  -95.532  -8.42  -1.60  0000
  156   3.103  4234 15133918  253.365  352.376  31.082  -95.623  -8.48  -1.66  0000
  157   3.136  4629 15133919  254.663  352.405  30.908  -96.186  -8.60  -1.78  0000
  158   3.170  4320 15133920  254.800  352.299  30.864  -96.220  -8.50  -1.68  0000
