#
#   version : 20090611
#    num_fr : 30
#      time : 20110809 04:05:24.929 UTC
#      unix : 1312862724.929389
#       ntp : LOCK -19536 359867 8622
#       seq : 14414432
#       mul : 0 [A]
#      site : 01
#    latlon : 45.5749 -94.3965 370.0
#      text : Collegeville
#     label : 
#     plate : metal_20100816_20100506-404-gd3
#      geom : 640 480
#    reject : 0
#
#  fr    time   sum     seq       cx       cy      th      phi    lsp    mag  flag
   30  -0.767  2104 14414409  399.051  192.857  27.663  111.496  -6.60   0.22  0000
   31  -0.734  2355 14414410  397.640  194.951  27.042  112.042  -7.25  -0.43  0000
   32  -0.701  2595 14414411  396.634  196.829  26.549  112.631  -7.51  -0.69  0000
   33  -0.667  3068 14414412  396.026  198.643  26.160  113.331  -7.75  -0.93  0000
   34  -0.634  3120 14414413  394.597  200.604  25.563  113.878  -7.95  -1.13  0000
   35  -0.601  3282 14414414  393.071  202.517  24.953  114.397  -8.07  -1.25  0000
   36  -0.567  3886 14414415  391.908  204.358  24.440  115.013  -8.28  -1.46  0000
   37  -0.534  4401 14414416  391.000  206.491  23.956  115.893  -8.49  -1.67  0000
   38  -0.501  4282 14414417  389.547  209.087  23.291  116.908  -8.57  -1.75  0000
   39  -0.467  4805 14414418  387.832  211.728  22.566  117.929  -8.75  -1.93  0000
   40  -0.434  4926 14414419  386.585  213.321  22.080  118.513  -8.71  -1.89  0000
   41  -0.400  5475 14414420  384.513  216.191  21.256  119.684  -8.87  -2.05  0000
   42  -0.367  6180 14414421  382.806  218.649  20.575  120.779  -9.18  -2.36  0000
   43  -0.334  6569 14414422  380.978  221.537  19.831  122.211  -9.33  -2.51  0000
   44  -0.300  6451 14414423  379.171  223.929  19.152  123.397  -9.37  -2.55  0000
   45  -0.267  7072 14414424  377.733  226.464  18.563  124.877  -9.36  -2.54  0000
   46  -0.234  7315 14414425  375.862  229.589  17.831  126.807  -9.48  -2.66  0000
   47  -0.200  7471 14414426  373.989  232.355  17.146  128.597  -9.43  -2.61  0000
   48  -0.167  7982 14414427  372.480  235.024  16.581  130.526  -9.48  -2.66  0000
   49  -0.133  7897 14414428  370.408  238.083  15.869  132.836  -9.38  -2.56  0000
   50  -0.100  7412 14414429  368.089  240.688  15.139  134.879  -9.41  -2.59  0000
   51  -0.067  8124 14414430  366.355  243.479  14.580  137.385  -9.46  -2.64  0000
   52  -0.033  8017 14414431  363.725  247.157  13.799  140.962  -9.39  -2.57  0000
   53   0.000  9925 14414432  361.484  250.776  13.183  144.873  -9.83  -3.01  0000
   54   0.033  9501 14414433  359.389  254.101  12.667  148.784  -9.75  -2.93  0000
   55   0.067  7790 14414434  357.474  257.122  12.251  152.608  -9.41  -2.59  0000
   56   0.100  6456 14414435  354.073  261.572  11.599  158.876  -9.29  -2.47  0000
   57   0.133  5923 14414436  352.351  264.003  11.340  162.522  -9.01  -2.19  0000
   58   0.167  5578 14414437  350.076  267.711  11.126  168.174  -8.95  -2.13  0000
   59   0.200  1799 14414438  348.264  270.133  10.971  172.171  -6.80   0.02  0000
