#
#   version : 20090611
#    num_fr : 101
#      time : 20140721 07:37:11.852 UTC
#      unix : 1405928231.852127
#       ntp : LOCK -71 609652 345
#       seq : 105338888
#       mul : 0 [A]
#      site : 01
#    latlon : 45.5749 -94.3965 370.0
#      text : Collegeville
#     label : 
#     plate : metal_20100816_20100506-404-gd3
#      geom : 640 480
#    reject : 0
#
#  fr    time   sum     seq       cx       cy      th      phi    lsp    mag  flag
   29  -2.836  2597 105338803  123.972  181.914  54.987  -17.457  -6.27   0.55  0000
   30  -2.803  2769 105338804  124.502  180.910  54.936  -17.142  -6.61   0.21  0000
   31  -2.769  2804 105338805  123.791  179.739  55.247  -16.910  -6.54   0.28  0000
   32  -2.736  2745 105338806  123.449  177.310  55.582  -16.320  -6.42   0.40  0000
   33  -2.703  2561 105338807  123.862  175.971  55.603  -15.934  -6.46   0.36  0000
   34  -2.669  2844 105338808  125.073  174.972  55.372  -15.549  -6.87  -0.05  0000
   35  -2.636  2961 105338809  124.211  174.152  55.695  -15.433  -6.99  -0.17  0000
   36  -2.603  2762 105338810  125.262  172.176  55.615  -14.817  -6.64   0.18  0000
   37  -2.569  3040 105338811  125.420  171.410  55.655  -14.606  -6.88  -0.06  0000
   38  -2.536  2706 105338812  124.156  169.639  56.195  -14.302  -7.10  -0.28  0000
   39  -2.503  3251 105338813  124.215  167.939  56.367  -13.871  -7.27  -0.45  0000
   40  -2.469  3495 105338814  124.838  166.969  56.307  -13.559  -7.26  -0.44  0000
   41  -2.436  3670 105338815  125.555  165.756  56.250  -13.175  -7.33  -0.51  0000
   42  -2.402  3301 105338816  125.017  163.307  56.682  -12.636  -7.43  -0.61  0000
   43  -2.369  3362 105338817  124.474  162.131  56.969  -12.414  -7.22  -0.40  0000
   44  -2.336  3757 105338818  125.143  161.094  56.912  -12.082  -7.55  -0.73  0000
   45  -2.302  3214 105338819  126.010  159.623  56.857  -11.620  -7.52  -0.70  0000
   46  -2.269  3831 105338820  125.197  157.465  57.343  -11.201  -7.47  -0.65  0000
   47  -2.236  3749 105338821  125.489  156.791  57.349  -11.004  -7.42  -0.60  0000
   48  -2.202  3724 105338822  125.345  155.095  57.603  -10.619  -7.35  -0.53  0000
   49  -2.169  3809 105338823  126.029  153.873  57.577  -10.243  -7.66  -0.84  0000
   50  -2.135  3570 105338824  126.716  152.285  57.602   -9.781  -7.51  -0.69  0000
   51  -2.102  3958 105338825  126.737  151.488  57.701   -9.591  -7.54  -0.72  0000
   52  -2.069  3882 105338826  126.839  149.909  57.885   -9.209  -7.52  -0.70  0000
   53  -2.035  3855 105338827  126.521  148.282  58.188   -8.874  -7.61  -0.79  0000
   54  -2.002  3804 105338828  126.637  147.021  58.330   -8.569  -7.61  -0.79  0000
   55  -1.969  4031 105338829  127.192  145.666  58.371   -8.184  -7.73  -0.91  0000
   56  -1.935  3660 105338830  127.185  143.963  58.611   -7.797  -7.34  -0.52  0000
   57  -1.902  3536 105338831  127.232  143.312  58.691   -7.643  -7.58  -0.76  0000
   58  -1.869  3700 105338832  128.409  141.775  58.604   -7.135  -7.46  -0.64  0000
   59  -1.835  4056 105338833  128.010  139.271  59.070   -6.630  -7.69  -0.87  0000
   60  -1.802  4332 105338834  128.219  138.011  59.201   -6.321  -8.05  -1.23  0000
   61  -1.768  4649 105338835  128.346  136.982  59.321   -6.076  -8.12  -1.30  0000
   62  -1.735  4976 105338836  129.108  135.630  59.328   -5.671  -8.34  -1.52  0000
   63  -1.702  5592 105338837  128.773  133.556  59.728   -5.267  -8.52  -1.70  0000
   64  -1.668  6300 105338838  128.949  132.604  59.829   -5.035  -8.73  -1.91  0000
   65  -1.635  6079 105338839  129.109  131.040  60.030   -4.676  -8.66  -1.84  0000
   66  -1.602  5574 105338840  129.524  129.882  60.105   -4.367  -8.51  -1.69  0000
   67  -1.568  6369 105338841  129.751  128.713  60.232   -4.085  -8.83  -2.01  0000
   68  -1.535  5474 105338842  130.286  127.340  60.315   -3.715  -8.62  -1.80  0000
   69  -1.502  6130 105338843  130.371  125.921  60.521   -3.405  -8.78  -1.96  0000
   70  -1.468  6377 105338844  130.258  124.225  60.824   -3.068  -8.96  -2.14  0000
   71  -1.435  6327 105338845  130.783  122.997  60.893   -2.734  -8.76  -1.94  0000
   72  -1.401  5187 105338846  130.949  121.933  61.027   -2.490  -8.40  -1.58  0000
   73  -1.368  5363 105338847  131.024  120.228  61.292   -2.129  -8.72  -1.90  0000
   74  -1.335  5586 105338848  131.483  119.072  61.372   -1.824  -8.59  -1.77  0000
   75  -1.301  5386 105338849  132.333  117.818  61.374   -1.439  -8.47  -1.65  0000
   76  -1.268  6069 105338850  132.286  117.031  61.520   -1.288  -8.71  -1.89  0000
   77  -1.235  6151 105338851  132.632  115.000  61.784   -0.829  -8.62  -1.80  0000
   78  -1.201  5563 105338852  133.382  113.732  61.821   -0.460  -8.39  -1.57  0000
   79  -1.168  5595 105338853  132.917  112.364  62.173   -0.263  -8.45  -1.63  0000
   80  -1.134  5231 105338854  133.391  111.026  62.294    0.073  -8.41  -1.59  0000
   81  -1.101  4632 105338855  133.931  110.056  62.335    0.348  -8.34  -1.52  0000
   82  -1.068  5560 105338856  134.055  108.296  62.621    0.707  -8.52  -1.70  0000
   83  -1.034  4721 105338857  134.151  107.611  62.721    0.854  -8.19  -1.37  0000
   84  -1.001  4947 105338858  135.505  105.867  62.714    1.405  -8.25  -1.43  0000
   85  -0.968  4481 105338859  135.999  104.795  62.792    1.689  -8.27  -1.45  0000
   86  -0.934  4819 105338860  135.471  103.385  63.177    1.868  -8.08  -1.26  0000
   87  -0.901  4917 105338861  135.724  101.644  63.441    2.234  -8.00  -1.18  0000
   88  -0.868  4405 105338862  136.635  101.547  63.244    2.402  -8.01  -1.19  0000
   89  -0.834  4478 105338863  136.345   99.731  63.653    2.689  -8.11  -1.29  0000
   90  -0.801  4731 105338864  137.052   98.721  63.679    2.991  -8.08  -1.26  0000
   91  -0.767  4290 105338865  137.250   97.568  63.852    3.234  -8.01  -1.19  0000
   92  -0.734  4056 105338866  137.342   95.979  64.135    3.537  -7.82  -1.00  0000
   93  -0.701  4142 105338867  138.091   94.843  64.180    3.866  -7.76  -0.94  0000
   94  -0.667  4514 105338868  138.751   93.619  64.266    4.195  -7.84  -1.02  0000
   95  -0.634  4152 105338869  137.654   92.260  64.783    4.252  -7.59  -0.77  0000
   96  -0.601  3959 105338870  138.521   91.096  64.813    4.602  -7.33  -0.51  0000
   97  -0.567  4106 105338871  138.868   89.369  65.075    4.962  -7.55  -0.73  0000
   98  -0.534  4299 105338872  140.608   89.504  64.652    5.234  -7.68  -0.86  0000
   99  -0.501  3509 105338873  139.340   87.771  65.286    5.318  -7.21  -0.39  0000
  100  -0.467  3922 105338874  140.320   86.614  65.296    5.684  -7.47  -0.65  0000
  101  -0.434  3854 105338875  140.882   85.524  65.390    5.965  -7.58  -0.76  0000
  102  -0.400  3930 105338876  141.000   83.929  65.688    6.256  -7.64  -0.82  0000
  103  -0.367  3635 105338877  142.025   82.743  65.702    6.631  -7.34  -0.52  0000
  104  -0.334  3209 105338878  142.203   82.118  65.791    6.766  -7.22  -0.40  0000
  105  -0.300  3946 105338879  142.610   80.734  65.987    7.066  -7.41  -0.59  0000
  106  -0.267  4384 105338880  142.323   79.156  66.378    7.276  -7.74  -0.92  0000
  107  -0.234  5299 105338881  143.687   79.271  66.054    7.494  -8.23  -1.41  0000
  108  -0.200  4957 105338882  143.999   77.377  66.383    7.857  -8.30  -1.48  0000
  109  -0.167  4446 105338883  144.300   76.647  66.471    8.028  -8.20  -1.38  0000
  110  -0.133  5056 105338884  143.738   74.987  66.945    8.196  -8.17  -1.35  0000
  111  -0.100  5666 105338885  144.603   74.008  66.966    8.504  -8.53  -1.71  0000
  112  -0.067  5464 105338886  144.534   73.219  67.149    8.617  -8.59  -1.77  0000
  113  -0.033  6049 105338887  144.825   71.873  67.375    8.879  -8.75  -1.93  0000
  114   0.000  6759 105338888  145.587   70.984  67.403    9.152  -8.89  -2.07  0000
  115   0.033  5830 105338889  145.774   70.097  67.556    9.323  -8.56  -1.74  0000
  116   0.067  5082 105338890  146.254   68.797  67.736    9.609  -8.34  -1.52  0000
  117   0.100  5849 105338891  147.041   67.843  67.778    9.894  -8.62  -1.80  0000
  118   0.133  4649 105338892  147.453   67.072  67.860   10.085  -8.50  -1.68  0000
  119   0.167  5568 105338893  147.400   65.734  68.166   10.278  -8.65  -1.83  0000
  120   0.200  5325 105338894  147.570   65.323  68.221   10.371  -8.47  -1.65  0000
  121   0.234  5659 105338895  148.735   63.812  68.313   10.804  -8.42  -1.60  0000
  122   0.267  3816 105338896  149.133   63.158  68.376   10.973  -8.11  -1.29  0000
  123   0.300  4423 105338897  149.469   62.409  68.474   11.144  -8.02  -1.20  0000
  124   0.334  3965 105338898  150.338   61.659  68.463   11.411  -7.51  -0.69  0000
  125   0.367  3882 105338899  150.729   60.104  68.734   11.708  -7.42  -0.60  0000
  126   0.400  3325 105338900  151.001   59.626  68.787   11.827  -6.98  -0.16  0000
  127   0.434  3351 105338901  151.512   58.655  68.903   12.059  -6.84  -0.02  0000
  128   0.467  3690 105338902  152.537   57.820  68.886   12.365  -6.95  -0.13  0000
  131   0.567  3099 105338905  151.902   54.921  69.681   12.661  -6.02   0.80  0000
