#
#   version : 20090611
#    num_fr : 67
#      time : 20160104 04:58:19.274 UTC
#      unix : 1451883499.274060
#       ntp : LOCK -7859 378450 2695
#       seq : 34647646
#       mul : 0 [A]
#      site : 01
#    latlon : 45.5749 -94.3965 370.0
#      text : Collegeville
#     label : 
#     plate : metal_20100816_20100506-404-gd3
#      geom : 640 480
#    reject : 0
#
#  fr    time   sum     seq       cx       cy      th      phi    lsp    mag  flag
   29  -1.001  2928 34647616   91.087  102.528  74.577   -4.269  -6.05   0.77  0000
   30  -0.968  3212 34647617   91.034  104.070  74.333   -4.544  -6.50   0.32  0000
   31  -0.934  2798 34647618   89.964  104.770  74.505   -4.797  -6.01   0.81  0000
   33  -0.868  3327 34647620   88.983  106.234  74.530   -5.172  -6.85  -0.03  0000
   34  -0.834  3446 34647621   87.029  107.795  74.809   -5.679  -6.90  -0.08  0000
   35  -0.801  2919 34647622   87.816  109.345  74.343   -5.859  -6.82   0.00  0000
   36  -0.767  3700 34647623   86.909  110.119  74.467   -6.104  -7.21  -0.39  0000
   37  -0.734  3416 34647624   85.964  111.840  74.454   -6.520  -7.00  -0.18  0000
   38  -0.701  3792 34647625   85.029  112.658  74.584   -6.774  -7.61  -0.79  0000
   39  -0.667  3883 34647626   84.741  114.594  74.361   -7.154  -7.49  -0.67  0000
   40  -0.634  3553 34647627   83.983  114.035  74.659   -7.140  -7.53  -0.71  0000
   41  -0.601  3821 34647628   83.743  115.761  74.459   -7.477  -7.43  -0.61  0000
   42  -0.567  3729 34647629   82.698  116.872  74.581   -7.795  -7.54  -0.72  0000
   43  -0.534  2769 34647630   82.047  118.510  74.516   -8.163  -7.80  -0.98  0000
   44  -0.501  4033 34647631   81.022  119.615  74.639   -8.476  -8.00  -1.18  0000
   45  -0.467  4521 34647632   80.533  120.422  74.657   -8.676  -8.04  -1.22  0000
   46  -0.434  4659 34647633   79.590  122.206  74.662   -9.103  -8.18  -1.36  0000
   47  -0.400  5848 34647634   78.814  123.101  74.752   -9.350  -8.86  -2.04  0000
   48  -0.367  6206 34647635   77.861  124.119  74.876   -9.637  -8.71  -1.89  0000
   49  -0.334  7513 34647636   77.083  125.622  74.884   -9.994  -9.19  -2.37  0000
   50  -0.300  7667 34647637   75.583  126.752  75.155  -10.357  -9.18  -2.36  0000
   51  -0.267  7132 34647638   75.128  127.678  75.156  -10.573  -9.21  -2.39  0000
   52  -0.234  7502 34647639   74.157  128.985  75.255  -10.912  -9.19  -2.37  0000
   53  -0.200  7590 34647640   73.397  130.177  75.312  -11.208  -9.16  -2.34  0000
   54  -0.167  8255 34647641   72.427  131.311  75.440  -11.514  -9.37  -2.55  0000
   55  -0.133  8601 34647642   72.227  133.004  75.272  -11.848  -9.34  -2.52  0000
   56  -0.100  8775 34647643   71.321  134.125  75.387  -12.144  -9.49  -2.67  0000
   57  -0.067  8290 34647644   70.434  135.229  75.502  -12.434  -9.39  -2.57  0000
   58  -0.033  8547 34647645   69.628  136.812  75.534  -12.806  -9.57  -2.75  0000
   59   0.000  9405 34647646   69.210  137.624  75.553  -12.997  -9.49  -2.67  0000
   60   0.033  8924 34647647   68.264  138.983  75.660  -13.339  -9.55  -2.73  0000
   61   0.067  8246 34647648   67.651  140.706  75.626  -13.718  -9.53  -2.71  0000
   62   0.100  8948 34647649   66.693  142.032  75.747  -14.054  -9.59  -2.77  0000
   63   0.133  8618 34647650   66.463  143.111  75.684  -14.278  -9.61  -2.79  0000
   64   0.167  9229 34647651   65.399  144.474  75.837  -14.629  -9.56  -2.74  0000
   65   0.200  9234 34647652   64.506  146.392  75.877  -15.069  -9.57  -2.75  0000
   66   0.234  8017 34647653   64.360  147.333  75.811  -15.260  -9.35  -2.53  0000
   67   0.267  9097 34647654   64.311  148.959  75.638  -15.573  -9.41  -2.59  0000
   68   0.300  7971 34647655   62.754  150.574  75.923  -16.011  -9.32  -2.50  0000
   69   0.334  8522 34647656   62.338  151.265  75.971  -16.177  -9.31  -2.49  0000
   70   0.367  8295 34647657   62.050  153.867  75.771  -16.698  -9.31  -2.49  0000
   71   0.400  7614 34647658   61.592  154.782  75.811  -16.910  -9.12  -2.30  0000
   72   0.434  7829 34647659   60.862  155.994  75.903  -17.201  -9.10  -2.28  0000
   73   0.467  7498 34647660   60.370  156.874  75.959  -17.408  -9.11  -2.29  0000
   74   0.501  8799 34647661   59.764  159.045  75.918  -17.873  -9.37  -2.55  0000
   75   0.534  8512 34647662   59.057  160.426  75.993  -18.193  -9.23  -2.41  0000
   76   0.567  8046 34647663   58.033  161.658  76.183  -18.507  -9.33  -2.51  0000
   77   0.601  8684 34647664   57.281  163.800  76.203  -18.976  -9.47  -2.65  0000
   78   0.634  8798 34647665   57.086  164.864  76.160  -19.197  -9.32  -2.50  0000
   79   0.667  8637 34647666   56.261  166.081  76.298  -19.491  -9.34  -2.52  0000
   80   0.701  8675 34647667   55.315  167.542  76.454  -19.840  -9.48  -2.66  0000
   81   0.734  8761 34647668   55.106  168.897  76.394  -20.118  -9.57  -2.75  0000
   82   0.767  7926 34647669   54.251  170.709  76.496  -20.528  -9.29  -2.47  0000
   83   0.801  6843 34647670   54.266  172.338  76.346  -20.845  -8.87  -2.05  0000
   84   0.834  7337 34647671   54.010  173.634  76.314  -21.115  -9.05  -2.23  0000
   85   0.868  7076 34647672   52.610  175.059  76.629  -21.482  -9.16  -2.34  0000
   86   0.901  7849 34647673   52.106  176.530  76.664  -21.801  -9.39  -2.57  0000
   87   0.934  8109 34647674   51.538  178.339  76.695  -22.190  -8.99  -2.17  0000
   88   0.968  6390 34647675   50.977  179.610  76.770  -22.473  -8.79  -1.97  0000
   89   1.001  7168 34647676   50.625  180.886  76.780  -22.744  -9.02  -2.20  0000
   90   1.034  6055 34647677   50.398  182.516  76.726  -23.078  -8.62  -1.80  0000
   91   1.068  5940 34647678   49.651  184.171  76.838  -23.445  -8.59  -1.77  0000
   92   1.101  5575 34647679   48.938  186.322  76.907  -23.908  -8.47  -1.65  0000
   93   1.134  6953 34647680   48.122  187.751  77.065  -24.233  -8.95  -2.13  0000
   94   1.168  3979 34647681   48.818  189.419  76.730  -24.527  -7.62  -0.80  0000
   95   1.201  3586 34647682   48.848  190.079  76.675  -24.656  -7.17  -0.35  0000
   96   1.235  3246 34647683   47.216  191.643  77.091  -25.047  -6.52   0.30  0000
